OOIBase32 Version 2.0.0.6 Data File
++++++++++++++++++++++++++++++++++++
Date: 01-22-2012, 21:06:16
User: Valued Ocean Optics Customer
Spectrometer Serial Number: USB2E2917
Spectrometer Channel: Master
Integration Time (msec): 4
Spectra Averaged: 10
Boxcar Smoothing: 5
Correct for Electrical Dark: Enabled
Time Normalized: Disabled
Dual-beam Reference: Disabled
Reference Channel: Master
Temperature: Not acquired
Spectrometer Type: S2000
ADC Type: USB2000
Number of Pixels in File: 2048
Graph Title: 
>>>>>Begin Spectral Data<<<<<
180.30	0.000
180.67	0.000
181.03	-18.005
181.40	75.230
181.77	-56.515
182.14	21.303
182.51	-12.007
182.88	59.253
183.25	43.593
183.62	67.544
183.99	-16.272
184.36	234.254
184.73	-228.928
185.10	587.163
185.46	145.903
185.83	23.222
186.20	-47.011
186.57	216.866
186.94	47.797
187.31	27.398
187.68	1534.174
188.05	-658.645
188.42	-211.006
188.78	182.022
189.15	78.498
189.52	57.932
189.89	45.200
190.26	32.231
190.63	23.116
191.00	21.636
191.37	-11.908
191.73	-31.412
192.10	-88.566
192.47	-68.469
192.84	-189.281
193.21	-334.639
193.58	-257.081
193.94	-124.990
194.31	-27.524
194.68	-6.620
195.05	-4.075
195.42	-20.596
195.79	-3.884
196.15	20.161
196.52	51.293
196.89	31.254
197.26	29.978
197.63	1.256
198.00	12.057
198.36	-21.113
198.73	-7.862
199.10	-13.268
199.47	33.218
199.84	24.174
200.20	-9.845
200.57	-25.478
200.94	15.399
201.31	24.746
201.68	36.780
202.04	25.249
202.41	23.005
202.78	16.627
203.15	13.415
203.51	7.463
203.88	2.432
204.25	-14.843
204.62	-18.885
204.98	-19.823
205.35	-52.189
205.72	-106.374
206.09	-173.378
206.46	-121.030
206.82	-184.997
207.19	-192.218
207.56	-226.389
207.92	-229.076
208.29	-114.511
208.66	-79.991
209.03	-99.531
209.39	-45.222
209.76	-10.175
210.13	4.668
210.50	18.807
210.86	8.431
211.23	-25.429
211.60	-60.865
211.96	-62.863
212.33	-150.777
212.70	6040.902
213.07	534.229
213.43	496.574
213.80	1817.892
214.17	323.732
214.53	1831.286
214.90	-182.899
215.27	-39.582
215.63	-69.584
216.00	-36.297
216.37	-21.155
216.74	-29.617
217.10	-24.294
217.47	-26.712
217.84	-26.808
218.20	-31.296
218.57	-27.429
218.94	-41.038
219.30	-40.201
219.67	-16.965
220.04	-17.367
220.40	-5.580
220.77	7.858
221.13	16.433
221.50	20.711
221.87	20.820
222.23	28.041
222.60	24.287
222.97	22.846
223.33	14.896
223.70	5.904
224.07	2.984
224.43	-1.123
224.80	2.410
225.16	0.094
225.53	-0.178
225.90	0.656
226.26	1.540
226.63	2.882
226.99	1.293
227.36	2.129
227.73	2.401
228.09	1.997
228.46	3.423
228.82	0.913
229.19	1.698
229.56	0.839
229.92	2.514
230.29	2.687
230.65	2.308
231.02	2.815
231.38	4.563
231.75	3.973
232.12	5.190
232.48	2.994
232.85	6.476
233.21	6.069
233.58	6.603
233.94	4.942
234.31	5.945
234.68	4.344
235.04	3.941
235.41	3.776
235.77	3.790
236.14	5.045
236.50	7.148
236.87	6.651
237.23	6.835
237.60	6.092
237.96	5.043
238.33	4.049
238.69	4.458
239.06	4.346
239.42	3.907
239.79	3.398
240.15	3.967
240.52	3.251
240.88	2.277
241.25	1.686
241.61	1.287
241.98	2.025
242.34	1.779
242.71	1.997
243.07	2.428
243.44	2.873
243.80	3.437
244.17	2.633
244.53	2.424
244.90	3.084
245.26	3.569
245.63	3.862
245.99	3.722
246.36	3.787
246.72	3.587
247.09	3.408
247.45	3.674
247.81	3.971
248.18	4.278
248.54	4.815
248.91	4.541
249.27	4.019
249.64	4.215
250.00	4.457
250.36	4.725
250.73	4.943
251.09	4.738
251.46	3.744
251.82	3.077
252.19	3.000
252.55	2.993
252.91	3.400
253.28	3.182
253.64	2.698
254.01	2.251
254.37	2.407
254.73	2.592
255.10	2.670
255.46	3.269
255.83	3.680
256.19	3.804
256.55	3.764
256.92	3.552
257.28	3.970
257.65	4.209
258.01	4.221
258.37	3.979
258.74	3.978
259.10	4.352
259.46	4.289
259.83	4.331
260.19	4.401
260.55	4.198
260.92	4.354
261.28	4.176
261.64	4.082
262.01	4.182
262.37	4.190
262.73	4.023
263.10	3.171
263.46	3.410
263.82	3.300
264.19	3.084
264.55	3.366
264.91	3.376
265.28	3.585
265.64	3.417
266.00	3.355
266.37	3.649
266.73	3.826
267.09	3.793
267.46	3.268
267.82	3.193
268.18	3.296
268.54	3.016
268.91	3.181
269.27	2.967
269.63	3.133
270.00	3.423
270.36	3.562
270.72	3.334
271.08	3.438
271.45	3.775
271.81	4.060
272.17	4.082
272.53	4.467
272.90	4.361
273.26	4.395
273.62	4.641
273.98	4.717
274.35	4.405
274.71	4.413
275.07	4.698
275.43	4.648
275.80	4.412
276.16	4.444
276.52	4.196
276.88	4.191
277.25	4.290
277.61	4.133
277.97	3.733
278.33	3.957
278.69	4.115
279.06	4.061
279.42	3.986
279.78	3.930
280.14	3.738
280.50	3.835
280.87	3.786
281.23	3.782
281.59	3.679
281.95	3.657
282.31	3.530
282.68	3.494
283.04	3.408
283.40	3.271
283.76	3.185
284.12	3.234
284.48	3.097
284.85	2.975
285.21	3.038
285.57	3.130
285.93	3.377
286.29	3.293
286.65	3.334
287.02	3.528
287.38	3.757
287.74	3.986
288.10	3.819
288.46	3.757
288.82	3.762
289.18	3.395
289.54	3.224
289.91	2.893
290.27	3.047
290.63	3.239
290.99	3.046
291.35	3.155
291.71	3.033
292.07	3.289
292.43	3.458
292.79	3.691
293.16	4.015
293.52	4.180
293.88	4.262
294.24	4.201
294.60	4.164
294.96	4.163
295.32	4.108
295.68	3.977
296.04	4.029
296.40	4.046
296.76	3.942
297.12	4.038
297.49	4.096
297.85	4.337
298.21	4.388
298.57	4.422
298.93	4.732
299.29	4.718
299.65	5.076
300.01	5.121
300.37	5.243
300.73	5.439
301.09	5.585
301.45	5.540
301.81	5.497
302.17	5.514
302.53	5.376
302.89	5.060
303.25	5.116
303.61	5.102
303.97	5.063
304.33	5.051
304.69	5.185
305.05	5.173
305.41	5.299
305.77	5.339
306.13	5.531
306.49	5.747
306.85	6.003
307.21	5.859
307.57	5.700
307.93	5.815
308.29	5.958
308.65	5.671
309.01	5.624
309.37	5.486
309.73	5.436
310.09	5.377
310.45	5.268
310.81	5.162
311.17	5.191
311.53	5.264
311.89	5.200
312.25	5.172
312.61	5.285
312.96	5.356
313.32	5.504
313.68	5.402
314.04	5.426
314.40	5.462
314.76	5.525
315.12	5.605
315.48	5.614
315.84	5.415
316.20	5.237
316.56	5.321
316.92	5.154
317.27	5.091
317.63	5.237
317.99	5.211
318.35	5.259
318.71	5.373
319.07	5.547
319.43	5.487
319.79	5.607
320.15	5.677
320.50	5.627
320.86	5.726
321.22	5.759
321.58	5.633
321.94	5.789
322.30	5.874
322.66	5.888
323.01	5.767
323.37	5.848
323.73	5.932
324.09	6.014
324.45	5.991
324.81	5.938
325.17	5.946
325.52	6.052
325.88	5.836
326.24	5.699
326.60	5.599
326.96	5.635
327.31	5.538
327.67	5.485
328.03	5.370
328.39	5.274
328.75	5.240
329.11	5.132
329.46	5.069
329.82	5.068
330.18	5.102
330.54	5.098
330.90	5.002
331.25	5.001
331.61	4.915
331.97	4.840
332.33	5.024
332.68	5.061
333.04	5.121
333.40	5.088
333.76	5.172
334.11	5.143
334.47	5.177
334.83	5.145
335.19	5.189
335.54	5.203
335.90	5.164
336.26	5.024
336.62	5.036
336.97	5.014
337.33	5.012
337.69	4.918
338.05	5.021
338.40	4.922
338.76	4.929
339.12	4.853
339.48	4.824
339.83	4.876
340.19	4.941
340.55	4.864
340.90	4.865
341.26	4.873
341.62	4.815
341.97	4.698
342.33	4.744
342.69	4.809
343.04	4.823
343.40	4.859
343.76	4.847
344.12	4.750
344.47	4.711
344.83	4.691
345.19	4.707
345.54	4.806
345.90	4.819
346.26	4.859
346.61	4.715
346.97	4.754
347.32	4.740
347.68	4.792
348.04	4.844
348.39	4.930
348.75	4.923
349.11	4.890
349.46	4.844
349.82	4.818
350.18	4.793
350.53	4.937
350.89	4.880
351.24	4.871
351.60	4.816
351.96	4.774
352.31	4.670
352.67	4.631
353.02	4.647
353.38	4.669
353.74	4.670
354.09	4.584
354.45	4.466
354.80	4.471
355.16	4.528
355.52	4.535
355.87	4.564
356.23	4.602
356.58	4.631
356.94	4.645
357.29	4.639
357.65	4.583
358.00	4.628
358.36	4.679
358.72	4.603
359.07	4.483
359.43	4.492
359.78	4.503
360.14	4.485
360.49	4.511
360.85	4.475
361.20	4.399
361.56	4.386
361.91	4.327
362.27	4.262
362.62	4.298
362.98	4.360
363.33	4.329
363.69	4.336
364.04	4.338
364.40	4.305
364.75	4.282
365.11	4.276
365.46	4.288
365.82	4.244
366.17	4.265
366.53	4.195
366.88	4.173
367.24	4.188
367.59	4.144
367.95	4.163
368.30	4.097
368.66	4.098
369.01	4.124
369.37	4.141
369.72	4.179
370.08	4.162
370.43	4.237
370.78	4.268
371.14	4.264
371.49	4.228
371.85	4.180
372.20	4.265
372.56	4.293
372.91	4.308
373.26	4.326
373.62	4.267
373.97	4.295
374.33	4.293
374.68	4.322
375.03	4.291
375.39	4.288
375.74	4.322
376.10	4.245
376.45	4.262
376.80	4.267
377.16	4.156
377.51	4.183
377.87	4.209
378.22	4.189
378.57	4.141
378.93	4.158
379.28	4.168
379.63	4.132
379.99	4.144
380.34	4.094
380.70	4.054
381.05	4.103
381.40	4.111
381.76	4.072
382.11	4.036
382.46	4.019
382.82	3.986
383.17	3.963
383.52	3.981
383.88	4.001
384.23	4.002
384.58	3.980
384.94	4.004
385.29	4.049
385.64	4.028
385.99	4.041
386.35	4.007
386.70	4.001
387.05	3.941
387.41	3.916
387.76	3.864
388.11	3.814
388.47	3.817
388.82	3.784
389.17	3.738
389.52	3.690
389.88	3.704
390.23	3.705
390.58	3.674
390.93	3.744
391.29	3.764
391.64	3.789
391.99	3.805
392.34	3.787
392.70	3.787
393.05	3.782
393.40	3.794
393.75	3.780
394.11	3.820
394.46	3.855
394.81	3.811
395.16	3.779
395.52	3.760
395.87	3.750
396.22	3.772
396.57	3.766
396.92	3.741
397.28	3.744
397.63	3.719
397.98	3.720
398.33	3.711
398.68	3.740
399.04	3.723
399.39	3.706
399.74	3.713
400.09	3.701
400.44	3.694
400.80	3.683
401.15	3.673
401.50	3.680
401.85	3.622
402.20	3.621
402.55	3.617
402.90	3.625
403.26	3.613
403.61	3.597
403.96	3.584
404.31	3.608
404.66	3.629
405.01	3.622
405.36	3.618
405.72	3.638
406.07	3.603
406.42	3.596
406.77	3.593
407.12	3.617
407.47	3.643
407.82	3.629
408.17	3.574
408.53	3.555
408.88	3.575
409.23	3.535
409.58	3.519
409.93	3.522
410.28	3.535
410.63	3.547
410.98	3.509
411.33	3.482
411.68	3.493
412.03	3.489
412.38	3.468
412.73	3.480
413.09	3.487
413.44	3.466
413.79	3.502
414.14	3.478
414.49	3.454
414.84	3.468
415.19	3.464
415.54	3.456
415.89	3.441
416.24	3.457
416.59	3.452
416.94	3.458
417.29	3.466
417.64	3.429
417.99	3.428
418.34	3.413
418.69	3.387
419.04	3.381
419.39	3.381
419.74	3.406
420.09	3.400
420.44	3.374
420.79	3.353
421.14	3.345
421.49	3.360
421.84	3.349
422.19	3.357
422.54	3.373
422.89	3.375
423.24	3.368
423.59	3.351
423.94	3.344
424.29	3.349
424.64	3.365
424.99	3.406
425.34	3.398
425.68	3.405
426.03	3.402
426.38	3.405
426.73	3.411
427.08	3.404
427.43	3.402
427.78	3.386
428.13	3.384
428.48	3.409
428.83	3.357
429.18	3.323
429.53	3.332
429.87	3.351
430.22	3.349
430.57	3.350
430.92	3.347
431.27	3.349
431.62	3.354
431.97	3.351
432.32	3.328
432.67	3.333
433.01	3.364
433.36	3.352
433.71	3.326
434.06	3.323
434.41	3.297
434.76	3.303
435.11	3.318
435.45	3.322
435.80	3.310
436.15	3.316
436.50	3.307
436.85	3.300
437.20	3.283
437.54	3.274
437.89	3.273
438.24	3.274
438.59	3.277
438.94	3.249
439.29	3.243
439.63	3.247
439.98	3.235
440.33	3.234
440.68	3.223
441.03	3.233
441.37	3.222
441.72	3.218
442.07	3.226
442.42	3.225
442.76	3.222
443.11	3.217
443.46	3.224
443.81	3.231
444.16	3.230
444.50	3.218
444.85	3.209
445.20	3.226
445.55	3.231
445.89	3.219
446.24	3.209
446.59	3.215
446.94	3.214
447.28	3.213
447.63	3.195
447.98	3.183
448.32	3.173
448.67	3.152
449.02	3.123
449.37	3.116
449.71	3.125
450.06	3.146
450.41	3.148
450.75	3.139
451.10	3.138
451.45	3.152
451.79	3.164
452.14	3.194
452.49	3.222
452.84	3.222
453.18	3.219
453.53	3.200
453.88	3.165
454.22	3.157
454.57	3.165
454.92	3.149
455.26	3.134
455.61	3.118
455.95	3.106
456.30	3.092
456.65	3.086
456.99	3.085
457.34	3.089
457.69	3.101
458.03	3.101
458.38	3.127
458.73	3.148
459.07	3.154
459.42	3.149
459.76	3.150
460.11	3.164
460.46	3.182
460.80	3.153
461.15	3.156
461.49	3.134
461.84	3.132
462.19	3.094
462.53	3.051
462.88	3.050
463.22	3.049
463.57	3.047
463.91	3.040
464.26	3.047
464.61	3.072
464.95	3.075
465.30	3.098
465.64	3.101
465.99	3.102
466.33	3.112
466.68	3.093
467.02	3.090
467.37	3.091
467.71	3.078
468.06	3.057
468.41	3.028
468.75	3.013
469.10	3.009
469.44	3.015
469.79	3.009
470.13	3.008
470.48	3.017
470.82	3.044
471.17	3.046
471.51	3.042
471.86	3.046
472.20	3.052
472.55	3.041
472.89	3.011
473.23	2.992
473.58	2.978
473.92	2.959
474.27	2.946
474.61	2.919
474.96	2.904
475.30	2.897
475.65	2.901
475.99	2.909
476.34	2.907
476.68	2.921
477.02	2.917
477.37	2.920
477.71	2.931
478.06	2.939
478.40	2.937
478.75	2.958
479.09	2.984
479.43	3.007
479.78	3.029
480.12	3.065
480.47	3.107
480.81	3.143
481.15	3.188
481.50	3.224
481.84	3.267
482.19	3.319
482.53	3.356
482.87	3.371
483.22	3.359
483.56	3.328
483.90	3.287
484.25	3.245
484.59	3.222
484.94	3.182
485.28	3.152
485.62	3.118
485.97	3.072
486.31	3.028
486.65	3.003
487.00	3.000
487.34	3.026
487.68	3.059
488.03	3.076
488.37	3.073
488.71	3.075
489.06	3.062
489.40	3.038
489.74	3.023
490.09	3.017
490.43	3.007
490.77	3.001
491.11	2.999
491.46	2.990
491.80	2.975
492.14	2.964
492.49	2.952
492.83	2.937
493.17	2.918
493.51	2.891
493.86	2.866
494.20	2.847
494.54	2.816
494.88	2.803
495.23	2.783
495.57	2.774
495.91	2.776
496.25	2.775
496.60	2.772
496.94	2.776
497.28	2.779
497.62	2.780
497.97	2.781
498.31	2.806
498.65	2.792
498.99	2.798
499.33	2.813
499.68	2.804
500.02	2.793
500.36	2.777
500.70	2.771
501.04	2.767
501.39	2.770
501.73	2.762
502.07	2.740
502.41	2.737
502.75	2.727
503.09	2.716
503.44	2.706
503.78	2.695
504.12	2.713
504.46	2.714
504.80	2.726
505.14	2.722
505.49	2.744
505.83	2.749
506.17	2.745
506.51	2.755
506.85	2.751
507.19	2.763
507.53	2.778
507.87	2.775
508.22	2.780
508.56	2.784
508.90	2.787
509.24	2.781
509.58	2.778
509.92	2.779
510.26	2.765
510.60	2.768
510.94	2.759
511.28	2.743
511.63	2.742
511.97	2.736
512.31	2.721
512.65	2.715
512.99	2.712
513.33	2.737
513.67	2.746
514.01	2.759
514.35	2.769
514.69	2.779
515.03	2.795
515.37	2.804
515.71	2.812
516.05	2.823
516.39	2.822
516.73	2.826
517.07	2.822
517.41	2.828
517.75	2.821
518.09	2.815
518.43	2.801
518.77	2.793
519.11	2.779
519.45	2.772
519.79	2.758
520.13	2.749
520.47	2.740
520.81	2.721
521.15	2.707
521.49	2.706
521.83	2.705
522.17	2.718
522.51	2.730
522.85	2.761
523.19	2.791
523.53	2.831
523.87	2.865
524.21	2.894
524.55	2.922
524.89	2.950
525.23	2.977
525.57	3.005
525.91	3.034
526.25	3.043
526.58	3.052
526.92	3.065
527.26	3.072
527.60	3.085
527.94	3.091
528.28	3.100
528.62	3.098
528.96	3.101
529.30	3.087
529.64	3.071
529.97	3.068
530.31	3.057
530.65	3.045
530.99	3.032
531.33	3.015
531.67	2.994
532.01	2.986
532.35	2.986
532.68	2.978
533.02	2.988
533.36	2.986
533.70	2.991
534.04	2.993
534.38	2.970
534.71	2.965
535.05	2.955
535.39	2.956
535.73	2.939
536.07	2.928
536.41	2.926
536.74	2.923
537.08	2.931
537.42	2.927
537.76	2.934
538.10	2.958
538.43	2.949
538.77	2.960
539.11	2.975
539.45	2.985
539.79	2.988
540.12	2.994
540.46	2.996
540.80	2.993
541.14	3.003
541.47	3.003
541.81	2.994
542.15	3.002
542.49	2.988
542.82	2.977
543.16	2.970
543.50	2.964
543.84	2.941
544.17	2.919
544.51	2.897
544.85	2.879
545.18	2.870
545.52	2.867
545.86	2.868
546.20	2.870
546.53	2.863
546.87	2.848
547.21	2.834
547.54	2.837
547.88	2.847
548.22	2.834
548.55	2.800
548.89	2.759
549.23	2.756
549.56	2.735
549.90	2.698
550.24	2.692
550.57	2.693
550.91	2.696
551.25	2.674
551.58	2.655
551.92	2.659
552.26	2.685
552.59	2.682
552.93	2.672
553.27	2.673
553.60	2.689
553.94	2.684
554.27	2.670
554.61	2.686
554.95	2.689
555.28	2.677
555.62	2.689
555.95	2.672
556.29	2.690
556.63	2.695
556.96	2.692
557.30	2.698
557.63	2.687
557.97	2.711
558.31	2.681
558.64	2.686
558.98	2.713
559.31	2.704
559.65	2.694
559.98	2.686
560.32	2.688
560.65	2.693
560.99	2.696
561.33	2.702
561.66	2.684
562.00	2.688
562.33	2.709
562.67	2.690
563.00	2.694
563.34	2.721
563.67	2.748
564.01	2.750
564.34	2.746
564.68	2.758
565.01	2.748
565.35	2.764
565.68	2.786
566.02	2.778
566.35	2.787
566.69	2.771
567.02	2.758
567.36	2.777
567.69	2.749
568.03	2.739
568.36	2.737
568.69	2.746
569.03	2.753
569.36	2.737
569.70	2.742
570.03	2.763
570.37	2.773
570.70	2.789
571.04	2.763
571.37	2.772
571.70	2.777
572.04	2.760
572.37	2.768
572.71	2.769
573.04	2.773
573.37	2.773
573.71	2.754
574.04	2.779
574.38	2.776
574.71	2.768
575.04	2.787
575.38	2.800
575.71	2.814
576.05	2.794
576.38	2.780
576.71	2.752
577.05	2.745
577.38	2.747
577.71	2.723
578.05	2.683
578.38	2.692
578.71	2.663
579.05	2.641
579.38	2.619
579.71	2.627
580.05	2.610
580.38	2.633
580.71	2.624
581.05	2.614
581.38	2.605
581.71	2.609
582.05	2.581
582.38	2.549
582.71	2.533
583.04	2.527
583.38	2.509
583.71	2.504
584.04	2.505
584.38	2.492
584.71	2.464
585.04	2.464
585.37	2.460
585.71	2.467
586.04	2.497
586.37	2.483
586.70	2.490
587.04	2.510
587.37	2.509
587.70	2.460
588.03	2.438
588.37	2.430
588.70	2.415
589.03	2.396
589.36	2.389
589.69	2.365
590.03	2.357
590.36	2.344
590.69	2.298
591.02	2.303
591.35	2.305
591.69	2.280
592.02	2.277
592.35	2.276
592.68	2.272
593.01	2.246
593.35	2.256
593.68	2.247
594.01	2.230
594.34	2.246
594.67	2.206
595.00	2.199
595.34	2.202
595.67	2.175
596.00	2.129
596.33	2.121
596.66	2.107
596.99	2.062
597.32	2.034
597.65	1.990
597.99	1.937
598.32	1.905
598.65	1.843
598.98	1.794
599.31	1.789
599.64	1.799
599.97	1.775
600.30	1.749
600.63	1.740
600.96	1.758
601.30	1.764
601.63	1.766
601.96	1.771
602.29	1.804
602.62	1.832
602.95	1.846
603.28	1.823
603.61	1.804
603.94	1.806
604.27	1.797
604.60	1.787
604.93	1.784
605.26	1.756
605.59	1.734
605.92	1.711
606.25	1.692
606.58	1.647
606.91	1.617
607.24	1.586
607.57	1.561
607.90	1.544
608.23	1.504
608.56	1.491
608.89	1.482
609.22	1.435
609.55	1.410
609.88	1.352
610.21	1.330
610.54	1.316
610.87	1.300
611.20	1.274
611.53	1.239
611.86	1.209
612.19	1.141
612.52	1.099
612.85	1.113
613.18	1.046
613.51	0.983
613.84	0.910
614.17	0.873
614.49	0.864
614.82	0.884
615.15	0.869
615.48	0.874
615.81	0.882
616.14	0.884
616.47	0.867
616.80	0.899
617.13	0.939
617.46	0.959
617.78	0.943
618.11	0.927
618.44	0.892
618.77	0.875
619.10	0.851
619.43	0.843
619.76	0.810
620.09	0.766
620.41	0.756
620.74	0.758
621.07	0.745
621.40	0.775
621.73	0.789
622.06	0.816
622.38	0.868
622.71	0.885
623.04	0.897
623.37	0.939
623.70	0.965
624.02	0.992
624.35	1.007
624.68	1.024
625.01	1.037
625.34	1.036
625.66	1.019
625.99	0.968
626.32	0.953
626.65	0.954
626.98	0.939
627.30	0.954
627.63	0.923
627.96	0.860
628.29	0.825
628.61	0.780
628.94	0.738
629.27	0.700
629.60	0.697
629.92	0.681
630.25	0.638
630.58	0.593
630.91	0.571
631.23	0.551
631.56	0.570
631.89	0.561
632.21	0.591
632.54	0.583
632.87	0.578
633.19	0.578
633.52	0.532
633.85	0.519
634.18	0.520
634.50	0.507
634.83	0.479
635.16	0.438
635.48	0.461
635.81	0.408
636.14	0.393
636.46	0.377
636.79	0.343
637.11	0.343
637.44	0.318
637.77	0.267
638.09	0.202
638.42	0.191
638.75	0.186
639.07	0.117
639.40	0.086
639.73	0.060
640.05	0.006
640.38	-0.015
640.70	-0.043
641.03	-0.039
641.36	-0.025
641.68	0.013
642.01	0.011
642.33	0.031
642.66	0.050
642.98	0.051
643.31	0.014
643.64	0.063
643.96	0.105
644.29	0.126
644.61	0.127
644.94	0.177
645.26	0.205
645.59	0.240
645.91	0.273
646.24	0.286
646.56	0.302
646.89	0.384
647.22	0.385
647.54	0.341
647.87	0.382
648.19	0.406
648.52	0.386
648.84	0.321
649.17	0.305
649.49	0.238
649.82	0.236
650.14	0.267
650.47	0.259
650.79	0.253
651.11	0.258
651.44	0.212
651.76	0.224
652.09	0.221
652.41	0.271
652.74	0.227
653.06	0.209
653.39	0.214
653.71	0.194
654.04	0.192
654.36	0.192
654.68	0.198
655.01	0.253
655.33	0.276
655.66	0.309
655.98	0.324
656.30	0.372
656.63	0.388
656.95	0.398
657.28	0.391
657.60	0.435
657.92	0.420
658.25	0.411
658.57	0.350
