OOIBase32 Version 2.0.0.6 Data File
++++++++++++++++++++++++++++++++++++
Date: 01-20-2012, 22:27:25
User: Valued Ocean Optics Customer
Spectrometer Serial Number: USB2E2917
Spectrometer Channel: Master
Integration Time (msec): 4
Spectra Averaged: 10
Boxcar Smoothing: 5
Correct for Electrical Dark: Enabled
Time Normalized: Disabled
Dual-beam Reference: Disabled
Reference Channel: Master
Temperature: Not acquired
Spectrometer Type: S2000
ADC Type: USB2000
Number of Pixels in File: 2048
Graph Title: 
>>>>>Begin Spectral Data<<<<<
180.30	0.000
180.67	0.000
181.03	197.012
181.40	1.423
181.77	130.808
182.14	244.981
182.51	41.688
182.88	13.778
183.25	2.835
183.62	114.392
183.99	166.637
184.36	-35.886
184.73	175.411
185.10	116.811
185.46	83.411
185.83	51.201
186.20	-13.694
186.57	90.288
186.94	113.038
187.31	-35.886
187.68	-3072.167
188.05	-150.546
188.42	-96.056
188.78	27.451
189.15	36.974
189.52	24.913
189.89	-2.567
190.26	11.709
190.63	20.192
191.00	10.469
191.37	-19.436
191.73	-27.985
192.10	-31.305
192.47	-7.985
192.84	-56.526
193.21	-93.003
193.58	-114.187
193.94	-124.273
194.31	-104.065
194.68	-65.833
195.05	-69.187
195.42	-36.630
195.79	-29.088
196.15	-30.812
196.52	-39.750
196.89	-55.338
197.26	-46.198
197.63	-30.505
198.00	-21.721
198.36	-25.074
198.73	-25.240
199.10	-12.380
199.47	-8.068
199.84	-13.635
200.20	-18.143
200.57	-22.244
200.94	-32.815
201.31	-34.333
201.68	-36.248
202.04	-37.476
202.41	-42.744
202.78	-43.301
203.15	-61.399
203.51	-74.535
203.88	-47.506
204.25	-36.325
204.62	-22.270
204.98	3.268
205.35	1.967
205.72	5.836
206.09	-0.350
206.46	-8.338
206.82	-11.353
207.19	4.472
207.56	6.609
207.92	19.251
208.29	20.508
208.66	2.866
209.03	-0.389
209.39	12.288
209.76	13.892
210.13	18.145
210.50	19.128
210.86	17.376
211.23	12.314
211.60	16.722
211.96	1.192
212.33	1.722
212.70	11.532
213.07	11.020
213.43	0.381
213.80	3.403
214.17	13.460
214.53	12.837
214.90	1.619
215.27	13.056
215.63	6.187
216.00	3.681
216.37	11.009
216.74	7.001
217.10	-0.907
217.47	-12.480
217.84	-25.006
218.20	-32.131
218.57	-30.363
218.94	-22.298
219.30	-27.555
219.67	-21.676
220.04	-17.562
220.40	-26.198
220.77	-26.518
221.13	-24.781
221.50	-10.318
221.87	-2.334
222.23	-4.032
222.60	-2.824
222.97	-0.613
223.33	3.260
223.70	2.150
224.07	4.268
224.43	6.872
224.80	6.602
225.16	6.751
225.53	4.725
225.90	3.923
226.26	4.866
226.63	4.252
226.99	3.127
227.36	3.977
227.73	4.732
228.09	4.572
228.46	4.273
228.82	3.980
229.19	3.613
229.56	3.665
229.92	3.490
230.29	2.784
230.65	4.369
231.02	6.215
231.38	5.941
231.75	4.461
232.12	4.325
232.48	3.239
232.85	3.031
233.21	3.484
233.58	3.155
233.94	2.685
234.31	3.219
234.68	1.517
235.04	1.588
235.41	0.164
235.77	1.751
236.14	1.657
236.50	1.565
236.87	2.665
237.23	2.703
237.60	3.553
237.96	4.210
238.33	4.735
238.69	5.218
239.06	5.143
239.42	5.446
239.79	5.015
240.15	4.988
240.52	5.085
240.88	5.151
241.25	5.362
241.61	5.330
241.98	5.144
242.34	4.956
242.71	4.673
243.07	4.699
243.44	4.507
243.80	4.897
244.17	4.883
244.53	4.910
244.90	4.929
245.26	5.047
245.63	5.212
245.99	5.345
246.36	5.339
246.72	5.419
247.09	5.366
247.45	5.324
247.81	5.151
248.18	5.180
248.54	5.119
248.91	4.771
249.27	4.333
249.64	4.183
250.00	4.028
250.36	4.416
250.73	4.268
251.09	4.317
251.46	4.686
251.82	4.594
252.19	4.900
252.55	5.293
252.91	5.597
253.28	6.097
253.64	5.876
254.01	5.827
254.37	5.243
254.73	5.344
255.10	5.392
255.46	5.032
255.83	5.152
256.19	5.011
256.55	4.818
256.92	5.043
257.28	4.827
257.65	4.815
258.01	4.756
258.37	4.724
258.74	4.649
259.10	4.576
259.46	4.710
259.83	4.512
260.19	4.342
260.55	4.449
260.92	4.362
261.28	4.555
261.64	4.665
262.01	4.702
262.37	4.767
262.73	4.911
263.10	4.670
263.46	4.770
263.82	5.051
264.19	5.046
264.55	4.982
264.91	5.109
265.28	4.857
265.64	4.930
266.00	4.803
266.37	4.951
266.73	5.001
267.09	5.189
267.46	5.134
267.82	5.127
268.18	5.248
268.54	5.212
268.91	4.921
269.27	5.041
269.63	4.621
270.00	4.723
270.36	4.312
270.72	4.135
271.08	4.106
271.45	3.896
271.81	3.753
272.17	3.864
272.53	3.933
272.90	3.981
273.26	3.792
273.62	4.037
273.98	4.185
274.35	4.387
274.71	4.629
275.07	4.589
275.43	4.561
275.80	4.669
276.16	4.441
276.52	4.345
276.88	4.162
277.25	4.329
277.61	4.420
277.97	4.233
278.33	4.266
278.69	4.225
279.06	4.113
279.42	4.147
279.78	4.080
280.14	4.263
280.50	4.254
280.87	4.422
281.23	4.383
281.59	4.329
281.95	4.354
282.31	4.383
282.68	4.351
283.04	4.412
283.40	4.488
283.76	4.531
284.12	4.433
284.48	4.467
284.85	4.390
285.21	4.475
285.57	4.362
285.93	4.270
286.29	4.202
286.65	4.273
287.02	4.224
287.38	3.991
287.74	3.922
288.10	4.011
288.46	3.867
288.82	4.038
289.18	3.921
289.54	4.137
289.91	4.041
290.27	3.923
290.63	3.844
290.99	3.969
291.35	4.197
291.71	4.209
292.07	4.205
292.43	4.195
292.79	3.883
293.16	3.857
293.52	3.666
293.88	3.878
294.24	4.136
294.60	4.099
294.96	4.024
295.32	4.025
295.68	3.944
296.04	3.849
296.40	3.969
296.76	4.141
297.12	4.214
297.49	4.217
297.85	4.128
298.21	3.988
298.57	4.062
298.93	4.089
299.29	4.198
299.65	4.160
300.01	4.153
300.37	4.232
300.73	4.194
301.09	4.136
301.45	4.271
301.81	4.482
302.17	4.560
302.53	4.535
302.89	4.566
303.25	4.430
303.61	4.605
303.97	4.669
304.33	4.490
304.69	4.585
305.05	4.573
305.41	4.481
305.77	4.351
306.13	4.336
306.49	4.305
306.85	4.241
307.21	4.414
307.57	4.472
307.93	4.481
308.29	4.578
308.65	4.619
309.01	4.708
309.37	4.879
309.73	4.859
310.09	4.803
310.45	4.834
310.81	4.876
311.17	4.725
311.53	4.755
311.89	4.747
312.25	4.845
312.61	4.711
312.96	4.653
313.32	4.552
313.68	4.554
314.04	4.605
314.40	4.597
314.76	4.700
315.12	4.832
315.48	4.682
315.84	4.709
316.20	4.467
316.56	4.555
316.92	4.587
317.27	4.430
317.63	4.507
317.99	4.527
318.35	4.602
318.71	4.651
319.07	4.747
319.43	4.879
319.79	4.977
320.15	5.110
320.50	5.123
320.86	5.157
321.22	5.337
321.58	5.261
321.94	5.240
322.30	5.122
322.66	5.145
323.01	5.086
323.37	5.121
323.73	5.054
324.09	5.165
324.45	5.220
324.81	5.293
325.17	5.301
325.52	5.432
325.88	5.519
326.24	5.635
326.60	5.631
326.96	5.714
327.31	5.728
327.67	5.830
328.03	5.793
328.39	5.889
328.75	5.937
329.11	6.007
329.46	6.063
329.82	6.132
330.18	6.204
330.54	6.191
330.90	6.245
331.25	6.157
331.61	6.127
331.97	6.210
332.33	6.125
332.68	6.068
333.04	6.064
333.40	6.073
333.76	6.054
334.11	6.093
334.47	6.126
334.83	6.073
335.19	6.169
335.54	6.119
335.90	6.125
336.26	6.176
336.62	6.120
336.97	6.055
337.33	5.953
337.69	5.969
338.05	5.943
338.40	5.966
338.76	5.902
339.12	5.895
339.48	5.884
339.83	5.873
340.19	5.854
340.55	5.957
340.90	6.042
341.26	6.037
341.62	6.053
341.97	6.024
342.33	5.985
342.69	6.006
343.04	5.888
343.40	5.929
343.76	5.928
344.12	5.881
344.47	5.855
344.83	5.810
345.19	5.904
345.54	5.891
345.90	5.956
346.26	5.990
346.61	5.971
346.97	6.101
347.32	6.158
347.68	6.099
348.04	6.125
348.39	6.078
348.75	6.041
349.11	6.029
349.46	5.933
349.82	5.966
350.18	5.905
350.53	5.978
350.89	5.909
351.24	5.841
351.60	5.811
351.96	5.801
352.31	5.822
352.67	5.884
353.02	5.805
353.38	5.769
353.74	5.717
354.09	5.665
354.45	5.680
354.80	5.727
355.16	5.790
355.52	5.784
355.87	5.851
356.23	5.863
356.58	5.840
356.94	5.834
357.29	5.995
357.65	5.939
358.00	6.005
358.36	5.963
358.72	5.953
359.07	5.869
359.43	5.907
359.78	5.827
360.14	5.769
360.49	5.697
360.85	5.715
361.20	5.619
361.56	5.641
361.91	5.585
362.27	5.590
362.62	5.587
362.98	5.680
363.33	5.708
363.69	5.760
364.04	5.779
364.40	5.873
364.75	5.927
365.11	5.968
365.46	5.967
365.82	5.998
366.17	5.994
366.53	6.014
366.88	5.915
367.24	5.850
367.59	5.826
367.95	5.870
368.30	5.871
368.66	5.874
369.01	5.859
369.37	5.905
369.72	5.974
370.08	6.027
370.43	6.063
370.78	6.153
371.14	6.246
371.49	6.264
371.85	6.296
372.20	6.292
372.56	6.292
372.91	6.301
373.26	6.283
373.62	6.328
373.97	6.281
374.33	6.243
374.68	6.264
375.03	6.228
375.39	6.240
375.74	6.247
376.10	6.353
376.45	6.388
376.80	6.430
377.16	6.453
377.51	6.431
377.87	6.476
378.22	6.594
378.57	6.640
378.93	6.733
379.28	6.824
379.63	6.894
379.99	6.898
380.34	6.940
380.70	7.031
381.05	7.077
381.40	7.178
381.76	7.246
382.11	7.215
382.46	7.273
382.82	7.299
383.17	7.381
383.52	7.418
383.88	7.483
384.23	7.529
384.58	7.557
384.94	7.607
385.29	7.574
385.64	7.601
385.99	7.653
386.35	7.603
386.70	7.615
387.05	7.598
387.41	7.590
387.76	7.621
388.11	7.674
388.47	7.715
388.82	7.810
389.17	7.905
389.52	7.965
389.88	7.999
390.23	8.114
390.58	8.214
390.93	8.268
391.29	8.340
391.64	8.349
391.99	8.385
392.34	8.403
392.70	8.399
393.05	8.407
393.40	8.412
393.75	8.421
394.11	8.396
394.46	8.369
394.81	8.366
395.16	8.387
395.52	8.367
395.87	8.343
396.22	8.303
396.57	8.289
396.92	8.253
397.28	8.289
397.63	8.321
397.98	8.322
398.33	8.310
398.68	8.341
399.04	8.353
399.39	8.371
399.74	8.373
400.09	8.403
400.44	8.428
400.80	8.442
401.15	8.422
401.50	8.457
401.85	8.505
402.20	8.578
402.55	8.576
402.90	8.559
403.26	8.596
403.61	8.630
403.96	8.686
404.31	8.720
404.66	8.746
405.01	8.773
405.36	8.725
405.72	8.727
406.07	8.690
406.42	8.706
406.77	8.736
407.12	8.732
407.47	8.756
407.82	8.748
408.17	8.729
408.53	8.732
408.88	8.703
409.23	8.757
409.58	8.731
409.93	8.727
410.28	8.749
410.63	8.738
410.98	8.750
411.33	8.764
411.68	8.762
412.03	8.805
412.38	8.844
412.73	8.944
413.09	8.974
413.44	9.050
413.79	9.134
414.14	9.175
414.49	9.220
414.84	9.275
415.19	9.325
415.54	9.398
415.89	9.438
416.24	9.485
416.59	9.522
416.94	9.590
417.29	9.619
417.64	9.639
417.99	9.657
418.34	9.706
418.69	9.740
419.04	9.767
419.39	9.786
419.74	9.834
420.09	9.853
420.44	9.868
420.79	9.874
421.14	9.871
421.49	9.886
421.84	9.903
422.19	9.918
422.54	9.913
422.89	9.903
423.24	9.892
423.59	9.855
423.94	9.844
424.29	9.819
424.64	9.801
424.99	9.814
425.34	9.780
425.68	9.745
426.03	9.703
426.38	9.666
426.73	9.653
427.08	9.635
427.43	9.607
427.78	9.607
428.13	9.622
428.48	9.646
428.83	9.631
429.18	9.658
429.53	9.687
429.87	9.711
430.22	9.732
430.57	9.757
430.92	9.793
431.27	9.830
431.62	9.859
431.97	9.850
432.32	9.844
432.67	9.832
433.01	9.836
433.36	9.829
433.71	9.825
434.06	9.816
434.41	9.805
434.76	9.816
435.11	9.832
435.45	9.840
435.80	9.883
436.15	9.907
436.50	9.955
436.85	10.002
437.20	10.052
437.54	10.074
437.89	10.123
438.24	10.140
438.59	10.141
438.94	10.135
439.29	10.130
439.63	10.116
439.98	10.113
440.33	10.130
440.68	10.131
441.03	10.105
441.37	10.106
441.72	10.107
442.07	10.118
442.42	10.118
442.76	10.147
443.11	10.167
443.46	10.175
443.81	10.192
444.16	10.181
444.50	10.173
444.85	10.166
445.20	10.169
445.55	10.137
445.89	10.119
446.24	10.105
446.59	10.058
446.94	10.013
447.28	9.984
447.63	9.939
447.98	9.899
448.32	9.851
448.67	9.822
449.02	9.768
449.37	9.761
449.71	9.746
450.06	9.703
450.41	9.717
450.75	9.739
451.10	9.738
451.45	9.718
451.79	9.749
452.14	9.764
452.49	9.771
452.84	9.792
453.18	9.796
453.53	9.814
453.88	9.877
454.22	9.897
454.57	9.922
454.92	9.964
455.26	10.020
455.61	10.075
455.95	10.141
456.30	10.215
456.65	10.256
456.99	10.305
457.34	10.330
457.69	10.348
458.03	10.376
458.38	10.387
458.73	10.402
459.07	10.405
459.42	10.372
459.76	10.343
460.11	10.308
460.46	10.282
460.80	10.254
461.15	10.223
461.49	10.214
461.84	10.196
462.19	10.206
462.53	10.195
462.88	10.193
463.22	10.224
463.57	10.236
463.91	10.252
464.26	10.281
464.61	10.297
464.95	10.334
465.30	10.342
465.64	10.359
465.99	10.346
466.33	10.362
466.68	10.386
467.02	10.389
467.37	10.398
467.71	10.406
468.06	10.428
468.41	10.438
468.75	10.436
469.10	10.411
469.44	10.405
469.79	10.405
470.13	10.391
470.48	10.378
470.82	10.372
471.17	10.380
471.51	10.378
471.86	10.353
472.20	10.354
472.55	10.375
472.89	10.408
473.23	10.402
473.58	10.399
473.92	10.415
474.27	10.435
474.61	10.437
474.96	10.416
475.30	10.412
475.65	10.424
475.99	10.440
476.34	10.442
476.68	10.437
477.02	10.449
477.37	10.490
477.71	10.519
478.06	10.561
478.40	10.670
478.75	10.824
479.09	10.992
479.43	11.201
479.78	11.424
480.12	11.659
480.47	11.906
480.81	12.168
481.15	12.421
481.50	12.670
481.84	12.942
482.19	13.244
482.53	13.514
482.87	13.708
483.22	13.752
483.56	13.671
483.90	13.501
484.25	13.271
484.59	12.988
484.94	12.774
485.28	12.592
485.62	12.358
485.97	12.056
486.31	11.790
486.65	11.588
487.00	11.509
487.34	11.529
487.68	11.606
488.03	11.724
488.37	11.874
488.71	11.918
489.06	11.919
489.40	11.902
489.74	11.908
490.09	11.890
490.43	11.863
490.77	11.840
491.11	11.800
491.46	11.767
491.80	11.738
492.14	11.704
492.49	11.674
492.83	11.615
493.17	11.599
493.51	11.551
493.86	11.536
494.20	11.535
494.54	11.543
494.88	11.585
495.23	11.642
495.57	11.677
495.91	11.727
496.25	11.764
496.60	11.818
496.94	11.849
497.28	11.906
497.62	11.929
497.97	11.952
498.31	11.996
498.65	12.024
498.99	12.057
499.33	12.107
499.68	12.157
500.02	12.224
500.36	12.267
500.70	12.351
501.04	12.390
501.39	12.454
501.73	12.509
502.07	12.549
502.41	12.619
502.75	12.661
503.09	12.739
503.44	12.799
503.78	12.849
504.12	12.914
504.46	12.948
504.80	13.012
505.14	13.080
505.49	13.156
505.83	13.216
506.17	13.258
506.51	13.355
506.85	13.401
507.19	13.444
507.53	13.498
507.87	13.549
508.22	13.600
508.56	13.649
508.90	13.681
509.24	13.721
509.58	13.760
509.92	13.816
510.26	13.845
510.60	13.870
510.94	13.898
511.28	13.924
511.63	13.962
511.97	13.993
512.31	14.047
512.65	14.098
512.99	14.173
513.33	14.253
513.67	14.321
514.01	14.406
514.35	14.508
514.69	14.605
515.03	14.691
515.37	14.769
515.71	14.844
516.05	14.904
516.39	14.967
516.73	14.983
517.07	15.016
517.41	15.051
517.75	15.055
518.09	15.055
518.43	15.062
518.77	15.061
519.11	15.055
519.45	15.048
519.79	15.053
520.13	15.057
520.47	15.104
520.81	15.132
521.15	15.168
521.49	15.197
521.83	15.246
522.17	15.298
522.51	15.389
522.85	15.481
523.19	15.624
523.53	15.768
523.87	15.957
524.21	16.139
524.55	16.317
524.89	16.486
525.23	16.639
525.57	16.765
525.91	16.891
526.25	16.995
526.58	17.095
526.92	17.161
527.26	17.232
527.60	17.252
527.94	17.244
528.28	17.230
528.62	17.200
528.96	17.172
529.30	17.129
529.64	17.078
529.97	17.030
530.31	16.977
530.65	16.923
530.99	16.858
531.33	16.825
531.67	16.824
532.01	16.832
532.35	16.829
532.68	16.822
533.02	16.832
533.36	16.826
533.70	16.808
534.04	16.784
534.38	16.786
534.71	16.790
535.05	16.773
535.39	16.746
535.73	16.700
536.07	16.703
536.41	16.714
536.74	16.744
537.08	16.790
537.42	16.848
537.76	16.925
538.10	16.996
538.43	17.057
538.77	17.128
539.11	17.196
539.45	17.273
539.79	17.324
540.12	17.380
540.46	17.420
540.80	17.443
541.14	17.468
541.47	17.454
541.81	17.442
542.15	17.420
542.49	17.401
542.82	17.372
543.16	17.329
543.50	17.290
543.84	17.252
544.17	17.225
544.51	17.194
544.85	17.157
545.18	17.165
545.52	17.139
545.86	17.137
546.20	17.132
546.53	17.125
546.87	17.124
547.21	17.106
547.54	17.094
547.88	17.100
548.22	17.098
548.55	17.111
548.89	17.094
549.23	17.111
549.56	17.112
549.90	17.117
550.24	17.120
550.57	17.131
550.91	17.166
551.25	17.189
551.58	17.172
551.92	17.188
552.26	17.206
552.59	17.214
552.93	17.225
553.27	17.239
553.60	17.235
553.94	17.262
554.27	17.272
554.61	17.275
554.95	17.255
555.28	17.281
555.62	17.305
555.95	17.294
556.29	17.335
556.63	17.379
556.96	17.402
557.30	17.463
557.63	17.458
557.97	17.480
558.31	17.488
558.64	17.519
558.98	17.509
559.31	17.546
559.65	17.596
559.98	17.628
560.32	17.616
560.65	17.638
560.99	17.626
561.33	17.661
561.66	17.716
562.00	17.781
562.33	17.846
562.67	17.910
563.00	17.914
563.34	17.924
563.67	17.937
564.01	17.984
564.34	18.020
564.68	18.084
565.01	18.120
565.35	18.117
565.68	18.092
566.02	18.065
566.35	18.094
566.69	18.121
567.02	18.149
567.36	18.156
567.69	18.147
568.03	18.163
568.36	18.147
568.69	18.167
569.03	18.181
569.36	18.213
569.70	18.257
570.03	18.252
570.37	18.282
570.70	18.306
571.04	18.342
571.37	18.386
571.70	18.393
572.04	18.400
572.37	18.402
572.71	18.409
573.04	18.442
573.37	18.437
573.71	18.454
574.04	18.443
574.38	18.409
574.71	18.418
575.04	18.423
575.38	18.439
575.71	18.453
576.05	18.458
576.38	18.446
576.71	18.402
577.05	18.414
577.38	18.409
577.71	18.379
578.05	18.373
578.38	18.342
578.71	18.285
579.05	18.248
579.38	18.224
579.71	18.204
580.05	18.207
580.38	18.213
580.71	18.197
581.05	18.194
581.38	18.237
581.71	18.278
582.05	18.305
582.38	18.312
582.71	18.351
583.04	18.373
583.38	18.365
583.71	18.349
584.04	18.406
584.38	18.418
584.71	18.440
585.04	18.454
585.37	18.462
585.71	18.442
586.04	18.509
586.37	18.535
586.70	18.535
587.04	18.568
587.37	18.632
587.70	18.598
588.03	18.628
588.37	18.622
588.70	18.612
589.03	18.648
589.36	18.652
589.69	18.642
590.03	18.616
590.36	18.621
590.69	18.639
591.02	18.623
591.35	18.668
591.69	18.680
592.02	18.690
592.35	18.729
592.68	18.724
593.01	18.751
593.35	18.765
593.68	18.789
594.01	18.811
594.34	18.795
594.67	18.821
595.00	18.826
595.34	18.811
595.67	18.810
596.00	18.758
596.33	18.755
596.66	18.754
596.99	18.734
597.32	18.728
597.65	18.725
597.99	18.727
598.32	18.706
598.65	18.689
598.98	18.710
599.31	18.727
599.64	18.765
599.97	18.756
600.30	18.786
600.63	18.808
600.96	18.766
601.30	18.729
601.63	18.737
601.96	18.748
602.29	18.753
602.62	18.739
602.95	18.717
603.28	18.718
603.61	18.722
603.94	18.697
604.27	18.678
604.60	18.706
604.93	18.727
605.26	18.712
605.59	18.687
605.92	18.645
606.25	18.619
606.58	18.617
606.91	18.608
607.24	18.565
607.57	18.565
607.90	18.538
608.23	18.537
608.56	18.519
608.89	18.515
609.22	18.515
609.55	18.543
609.88	18.534
610.21	18.517
610.54	18.471
610.87	18.452
611.20	18.369
611.53	18.324
611.86	18.293
612.19	18.261
612.52	18.233
612.85	18.153
613.18	18.069
613.51	18.084
613.84	18.070
614.17	18.081
614.49	18.096
614.82	18.138
615.15	18.161
615.48	18.105
615.81	18.065
616.14	18.085
616.47	18.131
616.80	18.118
617.13	18.072
617.46	18.058
617.78	18.017
618.11	17.943
618.44	17.887
618.77	17.876
619.10	17.879
619.43	17.876
619.76	17.809
620.09	17.775
620.41	17.771
620.74	17.757
621.07	17.745
621.40	17.741
621.73	17.782
622.06	17.805
622.38	17.796
622.71	17.812
623.04	17.825
623.37	17.809
623.70	17.821
624.02	17.860
624.35	17.861
624.68	17.855
625.01	17.875
625.34	17.839
625.66	17.788
625.99	17.783
626.32	17.743
626.65	17.726
626.98	17.719
627.30	17.705
627.63	17.624
627.96	17.582
628.29	17.563
628.61	17.549
628.94	17.576
629.27	17.589
629.60	17.573
629.92	17.548
630.25	17.531
630.58	17.554
630.91	17.516
631.23	17.519
631.56	17.524
631.89	17.498
632.21	17.451
632.54	17.404
632.87	17.381
633.19	17.354
633.52	17.352
633.85	17.339
634.18	17.294
634.50	17.299
634.83	17.269
635.16	17.258
635.48	17.224
635.81	17.218
636.14	17.167
636.46	17.133
636.79	17.073
637.11	17.048
637.44	17.007
637.77	16.950
638.09	16.882
638.42	16.853
638.75	16.811
639.07	16.790
639.40	16.708
639.73	16.735
640.05	16.753
640.38	16.723
640.70	16.679
641.03	16.634
641.36	16.649
641.68	16.608
642.01	16.605
642.33	16.524
642.66	16.451
642.98	16.442
643.31	16.389
643.64	16.348
643.96	16.338
644.29	16.334
644.61	16.336
644.94	16.341
645.26	16.332
645.59	16.296
