OOIBase32 Version 2.0.0.6 Data File
++++++++++++++++++++++++++++++++++++
Date: 01-23-2012, 21:45:30
User: Valued Ocean Optics Customer
Spectrometer Serial Number: USB2E2917
Spectrometer Channel: Master
Integration Time (msec): 5
Spectra Averaged: 10
Boxcar Smoothing: 5
Correct for Electrical Dark: Enabled
Time Normalized: Disabled
Dual-beam Reference: Disabled
Reference Channel: Master
Temperature: Not acquired
Spectrometer Type: S2000
ADC Type: USB2000
Number of Pixels in File: 2048
Graph Title: 
>>>>>Begin Spectral Data<<<<<
180.30	0.000
180.67	0.000
181.03	122.217
181.40	-217.902
181.77	1384.667
182.14	-3.402
182.51	114.054
182.88	7491.472
183.25	534.221
183.62	46.550
183.99	54.866
184.36	-57.475
184.73	-43.913
185.10	-8.932
185.46	95.960
185.83	132.501
186.20	104.867
186.57	176.811
186.94	83.454
187.31	106.378
187.68	-278.056
188.05	-2.228
188.42	30.542
188.78	38.581
189.15	43.249
189.52	33.815
189.89	24.828
190.26	7.375
190.63	39.023
191.00	45.013
191.37	49.890
191.73	48.245
192.10	57.742
192.47	40.232
192.84	33.657
193.21	37.673
193.58	41.008
193.94	45.155
194.31	31.557
194.68	29.039
195.05	31.746
195.42	20.339
195.79	20.152
196.15	21.256
196.52	36.471
196.89	38.029
197.26	35.358
197.63	34.811
198.00	35.612
198.36	41.346
198.73	28.557
199.10	18.605
199.47	32.059
199.84	33.275
200.20	44.298
200.57	37.858
200.94	44.258
201.31	36.309
201.68	46.654
202.04	40.239
202.41	55.837
202.78	58.036
203.15	61.313
203.51	50.930
203.88	37.028
204.25	34.376
204.62	33.085
204.98	21.935
205.35	25.672
205.72	23.909
206.09	25.350
206.46	20.589
206.82	28.108
207.19	32.193
207.56	34.572
207.92	33.988
208.29	31.621
208.66	36.179
209.03	46.157
209.39	43.665
209.76	30.741
210.13	24.119
210.50	31.028
210.86	18.256
211.23	21.317
211.60	19.525
211.96	27.265
212.33	28.490
212.70	32.982
213.07	31.734
213.43	34.851
213.80	37.588
214.17	35.945
214.53	32.292
214.90	35.561
215.27	32.827
215.63	30.787
216.00	24.142
216.37	25.000
216.74	14.736
217.10	8.806
217.47	1.502
217.84	5.997
218.20	21.604
218.57	24.871
218.94	18.969
219.30	21.705
219.67	24.899
220.04	31.390
220.40	22.400
220.77	18.254
221.13	11.837
221.50	5.460
221.87	1.692
222.23	-6.655
222.60	-7.065
222.97	-0.304
223.33	-1.804
223.70	-2.597
224.07	-2.512
224.43	2.549
224.80	8.372
225.16	10.123
225.53	10.444
225.90	7.866
226.26	6.630
226.63	4.875
226.99	4.571
227.36	4.434
227.73	5.178
228.09	3.641
228.46	3.071
228.82	1.924
229.19	3.376
229.56	6.024
229.92	8.118
230.29	8.942
230.65	9.453
231.02	10.493
231.38	9.985
231.75	9.613
232.12	12.012
232.48	11.887
232.85	11.340
233.21	11.038
233.58	8.564
233.94	10.163
234.31	11.100
234.68	10.902
235.04	9.801
235.41	10.070
235.77	10.673
236.14	9.256
236.50	6.686
236.87	7.358
237.23	6.153
237.60	6.399
237.96	4.282
238.33	4.392
238.69	4.932
239.06	4.016
239.42	3.993
239.79	4.219
240.15	5.055
240.52	5.564
240.88	5.370
241.25	5.806
241.61	5.919
241.98	6.925
242.34	6.580
242.71	6.689
243.07	7.139
243.44	7.429
243.80	7.322
244.17	7.180
244.53	7.240
244.90	6.885
245.26	6.765
245.63	6.836
245.99	6.590
246.36	6.818
246.72	6.197
247.09	5.929
247.45	5.558
247.81	5.515
248.18	5.167
248.54	5.260
248.91	5.378
249.27	5.707
249.64	5.518
250.00	5.442
250.36	5.097
250.73	5.800
251.09	6.111
251.46	6.505
251.82	6.370
252.19	6.787
252.55	6.503
252.91	6.929
253.28	6.269
253.64	6.252
254.01	6.077
254.37	5.916
254.73	5.909
255.10	6.444
255.46	6.310
255.83	5.931
256.19	5.815
256.55	5.750
256.92	5.461
257.28	5.605
257.65	5.782
258.01	5.997
258.37	5.975
258.74	5.881
259.10	5.606
259.46	5.848
259.83	6.163
260.19	6.006
260.55	6.214
260.92	6.418
261.28	6.200
261.64	6.210
262.01	6.077
262.37	5.982
262.73	5.706
263.10	5.542
263.46	5.519
263.82	5.400
264.19	5.318
264.55	5.252
264.91	5.082
265.28	5.396
265.64	5.168
266.00	4.983
266.37	5.169
266.73	5.773
267.09	6.100
267.46	5.634
267.82	5.256
268.18	5.457
268.54	5.268
268.91	5.464
269.27	5.348
269.63	5.280
270.00	5.306
270.36	5.077
270.72	4.751
271.08	4.474
271.45	4.529
271.81	4.957
272.17	4.928
272.53	4.994
272.90	4.728
273.26	4.629
273.62	4.552
273.98	4.467
274.35	4.456
274.71	4.583
275.07	4.772
275.43	5.142
275.80	4.888
276.16	5.270
276.52	5.081
276.88	5.024
277.25	5.075
277.61	5.157
277.97	5.308
278.33	5.136
278.69	4.942
279.06	5.008
279.42	4.414
279.78	4.426
280.14	4.178
280.50	4.271
280.87	4.304
281.23	4.521
281.59	4.495
281.95	4.393
282.31	4.637
282.68	4.828
283.04	4.669
283.40	4.931
283.76	4.890
284.12	4.822
284.48	4.888
284.85	5.040
285.21	4.922
285.57	4.985
285.93	5.152
286.29	5.161
286.65	5.146
287.02	5.153
287.38	5.173
287.74	5.394
288.10	5.470
288.46	5.525
288.82	5.455
289.18	5.408
289.54	5.403
289.91	5.392
290.27	5.502
290.63	5.606
290.99	5.637
291.35	5.727
291.71	5.743
292.07	5.587
292.43	5.553
292.79	5.883
293.16	5.949
293.52	5.948
293.88	6.036
294.24	6.052
294.60	5.986
294.96	6.180
295.32	6.218
295.68	6.025
296.04	6.247
296.40	6.258
296.76	6.225
297.12	6.350
297.49	6.506
297.85	6.703
298.21	6.911
298.57	7.006
298.93	7.030
299.29	7.059
299.65	7.185
300.01	7.208
300.37	7.279
300.73	7.483
301.09	7.684
301.45	7.857
301.81	7.769
302.17	7.546
302.53	7.498
302.89	7.399
303.25	7.463
303.61	7.572
303.97	7.495
304.33	7.537
304.69	7.385
305.05	7.357
305.41	7.203
305.77	7.190
306.13	7.296
306.49	7.575
306.85	7.735
307.21	7.774
307.57	7.863
307.93	7.968
308.29	8.042
308.65	8.046
309.01	8.035
309.37	8.222
309.73	8.293
310.09	8.366
310.45	8.262
310.81	8.250
311.17	8.103
311.53	8.109
311.89	8.241
312.25	8.260
312.61	8.361
312.96	8.439
313.32	8.342
313.68	8.234
314.04	8.258
314.40	8.317
314.76	8.526
315.12	8.870
315.48	9.075
315.84	8.967
316.20	9.186
316.56	9.341
316.92	9.444
317.27	9.571
317.63	9.772
317.99	9.842
318.35	9.917
318.71	9.927
319.07	9.940
319.43	10.001
319.79	10.177
320.15	10.129
320.50	9.932
320.86	10.110
321.22	10.175
321.58	10.339
321.94	10.476
322.30	10.680
322.66	10.931
323.01	11.104
323.37	11.179
323.73	11.458
324.09	11.658
324.45	12.144
324.81	12.131
325.17	12.314
325.52	12.470
325.88	12.702
326.24	12.866
326.60	13.062
326.96	13.486
327.31	13.673
327.67	13.814
328.03	14.029
328.39	14.129
328.75	14.456
329.11	14.689
329.46	14.929
329.82	15.112
330.18	15.282
330.54	15.439
330.90	15.456
331.25	15.670
331.61	15.793
331.97	15.880
332.33	16.066
332.68	16.088
333.04	16.150
333.40	16.139
333.76	16.169
334.11	16.177
334.47	16.188
334.83	16.121
335.19	16.156
335.54	16.178
335.90	16.236
336.26	16.156
336.62	16.248
336.97	16.215
337.33	16.223
337.69	16.233
338.05	16.206
338.40	16.178
338.76	16.146
339.12	16.115
339.48	16.133
339.83	16.098
340.19	16.076
340.55	16.003
340.90	16.034
341.26	15.989
341.62	16.012
341.97	16.092
342.33	16.025
342.69	15.959
343.04	15.883
343.40	15.800
343.76	15.788
344.12	15.858
344.47	15.834
344.83	15.785
345.19	15.856
345.54	15.780
345.90	15.825
346.26	15.835
346.61	15.979
346.97	15.961
347.32	15.986
347.68	15.896
348.04	15.745
348.39	15.829
348.75	15.962
349.11	15.802
349.46	15.787
349.82	15.683
350.18	15.713
350.53	15.578
350.89	15.635
351.24	15.568
351.60	15.632
351.96	15.631
352.31	15.608
352.67	15.570
353.02	15.690
353.38	15.685
353.74	15.718
354.09	15.699
354.45	15.775
354.80	15.735
355.16	15.720
355.52	15.706
355.87	15.752
356.23	15.699
356.58	15.650
356.94	15.677
357.29	15.657
357.65	15.589
358.00	15.687
358.36	15.692
358.72	15.753
359.07	15.835
359.43	15.855
359.78	15.912
360.14	15.946
360.49	15.927
360.85	15.882
361.20	15.975
361.56	16.098
361.91	15.979
362.27	15.989
362.62	15.995
362.98	15.979
363.33	15.978
363.69	15.952
364.04	15.937
364.40	15.973
364.75	16.007
365.11	16.036
365.46	16.014
365.82	16.111
366.17	16.141
366.53	16.176
366.88	16.187
367.24	16.287
367.59	16.408
367.95	16.493
368.30	16.563
368.66	16.648
369.01	16.703
369.37	16.857
369.72	16.951
370.08	17.016
370.43	17.103
370.78	17.222
371.14	17.290
371.49	17.352
371.85	17.451
372.20	17.535
372.56	17.664
372.91	17.728
373.26	17.731
373.62	17.791
373.97	17.925
374.33	18.029
374.68	18.128
375.03	18.248
375.39	18.299
375.74	18.382
376.10	18.468
376.45	18.542
376.80	18.680
377.16	18.797
377.51	18.919
377.87	18.956
378.22	19.089
378.57	19.266
378.93	19.348
379.28	19.542
379.63	19.751
379.99	19.955
380.34	20.115
380.70	20.254
381.05	20.446
381.40	20.632
381.76	20.848
382.11	21.018
382.46	21.074
382.82	21.245
383.17	21.356
383.52	21.458
383.88	21.585
384.23	21.788
384.58	21.931
384.94	22.059
385.29	22.188
385.64	22.394
385.99	22.587
386.35	22.857
386.70	23.052
387.05	23.232
387.41	23.379
387.76	23.528
388.11	23.594
388.47	23.758
388.82	23.873
389.17	23.986
389.52	24.106
389.88	24.197
390.23	24.303
390.58	24.453
390.93	24.552
391.29	24.696
391.64	24.889
391.99	25.036
392.34	25.228
392.70	25.395
393.05	25.562
393.40	25.656
393.75	25.798
394.11	25.919
394.46	26.048
394.81	26.245
395.16	26.341
395.52	26.417
395.87	26.517
396.22	26.521
396.57	26.619
396.92	26.716
397.28	26.841
397.63	26.909
397.98	27.037
398.33	27.147
398.68	27.243
399.04	27.397
399.39	27.494
399.74	27.650
400.09	27.819
400.44	27.927
400.80	27.989
401.15	28.089
401.50	28.200
401.85	28.271
402.20	28.370
402.55	28.473
402.90	28.548
403.26	28.715
403.61	28.779
403.96	28.901
404.31	29.005
404.66	29.118
405.01	29.215
405.36	29.359
405.72	29.475
406.07	29.595
406.42	29.698
406.77	29.821
407.12	29.839
407.47	29.959
407.82	29.996
408.17	30.044
408.53	30.126
408.88	30.228
409.23	30.286
409.58	30.349
409.93	30.378
410.28	30.446
410.63	30.519
410.98	30.601
411.33	30.611
411.68	30.642
412.03	30.712
412.38	30.755
412.73	30.723
413.09	30.690
413.44	30.644
413.79	30.640
414.14	30.599
414.49	30.566
414.84	30.518
415.19	30.537
415.54	30.566
415.89	30.554
416.24	30.534
416.59	30.552
416.94	30.551
417.29	30.558
417.64	30.561
417.99	30.566
418.34	30.578
418.69	30.633
419.04	30.632
419.39	30.647
419.74	30.657
420.09	30.705
420.44	30.756
420.79	30.802
421.14	30.850
421.49	30.903
421.84	30.969
422.19	31.012
422.54	31.082
422.89	31.168
423.24	31.244
423.59	31.341
423.94	31.398
424.29	31.438
424.64	31.534
424.99	31.667
425.34	31.771
425.68	31.871
426.03	32.009
426.38	32.035
426.73	32.115
427.08	32.147
427.43	32.219
427.78	32.276
428.13	32.363
428.48	32.374
428.83	32.389
429.18	32.409
429.53	32.419
429.87	32.429
430.22	32.444
430.57	32.470
430.92	32.521
431.27	32.525
431.62	32.561
431.97	32.578
432.32	32.678
432.67	32.698
433.01	32.722
433.36	32.775
433.71	32.832
434.06	32.891
434.41	32.937
434.76	33.000
435.11	33.059
435.45	33.079
435.80	33.087
436.15	33.091
436.50	33.101
436.85	33.106
437.20	33.104
437.54	33.110
437.89	33.116
438.24	33.109
438.59	33.093
438.94	33.109
439.29	33.158
439.63	33.185
439.98	33.208
440.33	33.222
440.68	33.251
441.03	33.247
441.37	33.236
441.72	33.219
442.07	33.203
442.42	33.177
442.76	33.158
443.11	33.127
443.46	33.069
443.81	33.026
444.16	33.002
444.50	32.993
444.85	33.021
445.20	33.034
445.55	33.074
445.89	33.109
446.24	33.151
446.59	33.179
446.94	33.219
447.28	33.324
447.63	33.368
447.98	33.449
448.32	33.511
448.67	33.509
449.02	33.548
449.37	33.594
449.71	33.615
450.06	33.661
450.41	33.679
450.75	33.703
451.10	33.709
451.45	33.782
451.79	33.819
452.14	33.860
452.49	33.925
452.84	33.999
453.18	34.022
453.53	34.082
453.88	34.129
454.22	34.158
454.57	34.179
454.92	34.235
455.26	34.233
455.61	34.259
455.95	34.252
456.30	34.285
456.65	34.276
456.99	34.282
457.34	34.312
457.69	34.367
458.03	34.407
458.38	34.474
458.73	34.499
459.07	34.559
459.42	34.604
459.76	34.663
460.11	34.714
460.46	34.815
460.80	34.956
461.15	35.034
461.49	35.043
461.84	35.153
462.19	35.235
462.53	35.346
462.88	35.421
463.22	35.508
463.57	35.618
463.91	35.682
464.26	35.724
464.61	35.733
464.95	35.763
465.30	35.853
465.64	35.891
465.99	35.909
466.33	35.944
466.68	35.988
467.02	36.025
467.37	36.057
467.71	36.125
468.06	36.171
468.41	36.217
468.75	36.269
469.10	36.312
469.44	36.388
469.79	36.427
470.13	36.487
470.48	36.528
470.82	36.581
471.17	36.619
471.51	36.627
471.86	36.629
472.20	36.669
472.55	36.742
472.89	36.751
473.23	36.737
473.58	36.798
473.92	36.791
474.27	36.788
474.61	36.788
474.96	36.781
475.30	36.800
475.65	36.843
475.99	36.878
476.34	36.861
476.68	36.893
477.02	36.931
477.37	36.945
477.71	37.002
478.06	37.103
478.40	37.159
478.75	37.358
479.09	37.607
479.43	37.881
479.78	38.233
480.12	38.696
480.47	39.196
480.81	39.735
481.15	40.279
481.50	40.855
481.84	41.548
482.19	42.310
482.53	42.908
482.87	43.256
483.22	43.241
483.56	42.847
483.90	42.227
484.25	41.461
484.59	40.722
484.94	40.186
485.28	39.653
485.62	38.949
485.97	38.195
486.31	37.548
486.65	37.145
487.00	37.094
487.34	37.368
487.68	37.805
488.03	38.329
488.37	38.778
488.71	38.941
489.06	39.025
489.40	39.065
489.74	39.091
490.09	39.122
490.43	39.112
490.77	39.124
491.11	39.150
491.46	39.189
491.80	39.244
492.14	39.251
492.49	39.246
492.83	39.229
493.17	39.285
493.51	39.322
493.86	39.367
494.20	39.429
494.54	39.481
494.88	39.534
495.23	39.563
495.57	39.623
495.91	39.703
496.25	39.794
496.60	39.845
496.94	39.893
497.28	39.946
497.62	40.034
497.97	40.138
498.31	40.235
498.65	40.338
498.99	40.461
499.33	40.554
499.68	40.657
500.02	40.782
500.36	40.932
500.70	41.035
501.04	41.158
501.39	41.208
501.73	41.308
502.07	41.428
502.41	41.503
502.75	41.552
503.09	41.638
503.44	41.740
503.78	41.793
504.12	41.839
504.46	41.908
504.80	41.971
505.14	42.072
505.49	42.144
505.83	42.183
506.17	42.268
506.51	42.377
506.85	42.437
507.19	42.508
507.53	42.603
507.87	42.702
508.22	42.797
508.56	42.895
508.90	43.008
509.24	43.087
509.58	43.193
509.92	43.300
510.26	43.366
510.60	43.456
510.94	43.507
511.28	43.610
511.63	43.713
511.97	43.792
512.31	43.896
512.65	43.934
512.99	44.004
513.33	44.085
513.67	44.183
514.01	44.285
514.35	44.334
514.69	44.452
515.03	44.517
515.37	44.549
515.71	44.621
516.05	44.648
516.39	44.718
516.73	44.771
517.07	44.839
517.41	44.898
517.75	44.928
518.09	45.013
518.43	45.075
518.77	45.101
519.11	45.183
519.45	45.249
519.79	45.317
520.13	45.400
520.47	45.465
520.81	45.522
521.15	45.572
521.49	45.640
521.83	45.725
522.17	45.785
522.51	45.880
522.85	45.945
523.19	46.069
523.53	46.257
523.87	46.489
524.21	46.717
524.55	46.905
524.89	47.082
525.23	47.267
525.57	47.442
525.91	47.600
526.25	47.712
526.58	47.832
526.92	47.940
527.26	47.981
527.60	47.971
527.94	47.964
528.28	47.949
528.62	47.929
528.96	47.875
529.30	47.813
529.64	47.735
529.97	47.691
530.31	47.635
530.65	47.558
530.99	47.516
531.33	47.516
531.67	47.538
532.01	47.560
532.35	47.569
532.68	47.582
533.02	47.590
533.36	47.589
533.70	47.602
534.04	47.607
534.38	47.617
534.71	47.664
535.05	47.680
535.39	47.660
535.73	47.650
536.07	47.640
536.41	47.747
536.74	47.809
537.08	47.917
537.42	48.022
537.76	48.139
538.10	48.244
538.43	48.353
538.77	48.421
539.11	48.487
539.45	48.583
539.79	48.670
540.12	48.713
540.46	48.730
540.80	48.736
541.14	48.716
541.47	48.706
541.81	48.708
542.15	48.692
542.49	48.669
542.82	48.675
543.16	48.644
543.50	48.640
543.84	48.621
544.17	48.661
544.51	48.724
544.85	48.765
545.18	48.807
545.52	48.830
545.86	48.847
546.20	48.910
546.53	48.927
546.87	49.000
547.21	49.043
547.54	49.094
547.88	49.126
548.22	49.108
548.55	49.194
548.89	49.240
549.23	49.297
549.56	49.327
549.90	49.385
550.24	49.466
550.57	49.490
550.91	49.536
551.25	49.547
551.58	49.593
551.92	49.673
552.26	49.691
552.59	49.712
552.93	49.787
553.27	49.838
553.60	49.888
553.94	49.979
554.27	50.026
554.61	50.097
554.95	50.184
555.28	50.260
555.62	50.336
555.95	50.441
556.29	50.536
556.63	50.560
556.96	50.605
557.30	50.621
557.63	50.633
557.97	50.706
558.31	50.761
558.64	50.822
558.98	50.861
559.31	50.874
559.65	50.890
559.98	50.884
560.32	50.932
560.65	50.991
560.99	51.089
561.33	51.151
561.66	51.158
562.00	51.184
562.33	51.218
562.67	51.267
563.00	51.309
563.34	51.315
563.67	51.338
564.01	51.342
564.34	51.368
564.68	51.379
565.01	51.389
565.35	51.476
565.68	51.501
566.02	51.524
566.35	51.595
566.69	51.631
567.02	51.690
567.36	51.773
567.69	51.845
568.03	51.891
568.36	51.927
568.69	51.960
569.03	51.955
569.36	52.010
569.70	52.018
570.03	51.995
570.37	51.998
570.70	52.040
571.04	52.047
571.37	52.072
571.70	52.117
572.04	52.146
572.37	52.214
572.71	52.258
573.04	52.315
573.37	52.439
573.71	52.521
574.04	52.623
574.38	52.722
574.71	52.823
575.04	52.910
575.38	52.987
575.71	53.085
576.05	53.193
576.38	53.346
576.71	53.455
577.05	53.481
577.38	53.557
577.71	53.654
578.05	53.677
578.38	53.745
578.71	53.819
579.05	53.917
579.38	53.966
579.71	53.949
580.05	53.909
580.38	53.939
580.71	54.034
581.05	54.089
581.38	54.117
581.71	54.225
582.05	54.282
582.38	54.326
582.71	54.413
583.04	54.480
583.38	54.599
583.71	54.676
584.04	54.703
584.38	54.739
584.71	54.801
585.04	54.872
585.37	54.907
585.71	54.984
586.04	55.028
586.37	54.974
586.70	55.029
587.04	55.070
587.37	55.131
587.70	55.166
588.03	55.250
588.37	55.290
588.70	55.358
589.03	55.384
589.36	55.453
589.69	55.523
590.03	55.607
590.36	55.640
590.69	55.652
591.02	55.735
591.35	55.803
591.69	55.789
592.02	55.793
592.35	55.771
592.68	55.825
593.01	55.795
593.35	55.870
593.68	55.899
594.01	55.956
594.34	56.060
594.67	56.058
595.00	56.094
595.34	56.117
595.67	56.193
596.00	56.327
596.33	56.325
596.66	56.466
596.99	56.497
597.32	56.662
597.65	56.762
597.99	56.794
598.32	56.928
598.65	57.027
598.98	57.119
599.31	57.226
599.64	57.237
599.97	57.354
600.30	57.340
600.63	57.361
600.96	57.298
601.30	57.284
601.63	57.296
601.96	57.256
602.29	57.295
602.62	57.349
602.95	57.408
603.28	57.462
603.61	57.528
603.94	57.605
604.27	57.671
604.60	57.774
604.93	57.870
605.26	57.971
605.59	58.134
605.92	58.220
606.25	58.363
606.58	58.421
606.91	58.492
607.24	58.557
607.57	58.592
607.90	58.655
608.23	58.711
608.56	58.827
608.89	58.938
609.22	59.001
609.55	59.117
609.88	59.184
610.21	59.292
610.54	59.477
610.87	59.622
611.20	59.784
611.53	59.998
611.86	60.176
612.19	60.353
612.52	60.482
612.85	60.628
613.18	60.698
613.51	60.738
613.84	60.805
614.17	60.860
614.49	60.923
614.82	61.030
615.15	61.049
615.48	61.086
615.81	61.066
616.14	61.069
616.47	61.109
616.80	61.176
617.13	61.320
617.46	61.395
617.78	61.446
618.11	61.521
618.44	61.599
618.77	61.681
619.10	61.797
619.43	61.910
619.76	62.068
620.09	62.155
620.41	62.324
620.74	62.395
621.07	62.525
621.40	62.629
621.73	62.658
622.06	62.716
622.38	62.737
622.71	62.722
623.04	62.719
623.37	62.676
623.70	62.673
624.02	62.610
624.35	62.663
624.68	62.630
625.01	62.620
625.34	62.659
625.66	62.666
625.99	62.774
626.32	62.872
626.65	62.991
626.98	63.092
627.30	63.242
627.63	63.319
627.96	63.384
628.29	63.564
628.61	63.703
628.94	63.826
629.27	63.943
629.60	64.076
629.92	64.102
630.25	64.179
630.58	64.204
630.91	64.185
631.23	64.354
631.56	64.407
631.89	64.455
632.21	64.545
632.54	64.587
632.87	64.682
633.19	64.669
633.52	64.820
633.85	64.913
634.18	65.039
634.50	65.110
634.83	65.174
635.16	65.225
635.48	65.253
635.81	65.260
636.14	65.448
636.46	65.491
636.79	65.639
637.11	65.676
637.44	65.713
637.77	65.782
638.09	65.914
638.42	65.984
