Channel	Intg Period [ms]	Avg. [scans]	Smoothing [pixels]
=========	=========	=========	=========
Slave1	358	1	0	

Slave1	uW/cm^2/nm	
DATA
 178.16	0.00000E+0
 178.55	0.00000E+0
 178.93	0.00000E+0
 179.31	0.00000E+0
 179.69	0.00000E+0
 180.07	0.00000E+0
 180.45	0.00000E+0
 180.83	0.00000E+0
 181.21	0.00000E+0
 181.59	0.00000E+0
 181.97	0.00000E+0
 182.35	0.00000E+0
 182.73	0.00000E+0
 183.11	0.00000E+0
 183.49	0.00000E+0
 183.87	0.00000E+0
 184.25	0.00000E+0
 184.63	0.00000E+0
 185.01	0.00000E+0
 185.39	0.00000E+0
 185.77	0.00000E+0
 186.15	0.00000E+0
 186.53	0.00000E+0
 186.91	0.00000E+0
 187.29	0.00000E+0
 187.67	0.00000E+0
 188.05	0.00000E+0
 188.43	0.00000E+0
 188.81	0.00000E+0
 189.19	0.00000E+0
 189.57	0.00000E+0
 189.95	0.00000E+0
 190.33	0.00000E+0
 190.71	0.00000E+0
 191.09	0.00000E+0
 191.47	0.00000E+0
 191.85	0.00000E+0
 192.23	0.00000E+0
 192.61	0.00000E+0
 192.99	0.00000E+0
 193.37	0.00000E+0
 193.75	0.00000E+0
 194.13	0.00000E+0
 194.51	0.00000E+0
 194.88	0.00000E+0
 195.26	0.00000E+0
 195.64	0.00000E+0
 196.02	0.00000E+0
 196.40	0.00000E+0
 196.78	0.00000E+0
 197.16	0.00000E+0
 197.54	0.00000E+0
 197.92	0.00000E+0
 198.30	0.00000E+0
 198.68	0.00000E+0
 199.05	0.00000E+0
 199.43	0.00000E+0
 199.81	0.00000E+0
 200.19	0.00000E+0
 200.57	0.00000E+0
 200.95	0.00000E+0
 201.33	0.00000E+0
 201.71	0.00000E+0
 202.08	0.00000E+0
 202.46	0.00000E+0
 202.84	0.00000E+0
 203.22	0.00000E+0
 203.60	0.00000E+0
 203.98	0.00000E+0
 204.36	0.00000E+0
 204.73	0.00000E+0
 205.11	0.00000E+0
 205.49	0.00000E+0
 205.87	0.00000E+0
 206.25	0.00000E+0
 206.63	0.00000E+0
 207.00	0.00000E+0
 207.38	0.00000E+0
 207.76	0.00000E+0
 208.14	0.00000E+0
 208.52	0.00000E+0
 208.90	0.00000E+0
 209.27	0.00000E+0
 209.65	0.00000E+0
 210.03	0.00000E+0
 210.41	0.00000E+0
 210.79	0.00000E+0
 211.16	0.00000E+0
 211.54	0.00000E+0
 211.92	0.00000E+0
 212.30	0.00000E+0
 212.67	0.00000E+0
 213.05	0.00000E+0
 213.43	0.00000E+0
 213.81	0.00000E+0
 214.18	0.00000E+0
 214.56	0.00000E+0
 214.94	0.00000E+0
 215.32	0.00000E+0
 215.69	0.00000E+0
 216.07	0.00000E+0
 216.45	0.00000E+0
 216.83	0.00000E+0
 217.20	0.00000E+0
 217.58	0.00000E+0
 217.96	0.00000E+0
 218.34	0.00000E+0
 218.71	0.00000E+0
 219.09	0.00000E+0
 219.47	0.00000E+0
 219.84	0.00000E+0
 220.22	0.00000E+0
 220.60	0.00000E+0
 220.98	0.00000E+0
 221.35	0.00000E+0
 221.73	0.00000E+0
 222.11	0.00000E+0
 222.48	0.00000E+0
 222.86	0.00000E+0
 223.24	0.00000E+0
 223.61	0.00000E+0
 223.99	0.00000E+0
 224.37	0.00000E+0
 224.74	0.00000E+0
 225.12	0.00000E+0
 225.50	0.00000E+0
 225.87	0.00000E+0
 226.25	0.00000E+0
 226.63	0.00000E+0
 227.00	0.00000E+0
 227.38	0.00000E+0
 227.76	0.00000E+0
 228.13	0.00000E+0
 228.51	0.00000E+0
 228.88	0.00000E+0
 229.26	0.00000E+0
 229.64	0.00000E+0
 230.01	0.00000E+0
 230.39	0.00000E+0
 230.77	0.00000E+0
 231.14	0.00000E+0
 231.52	0.00000E+0
 231.89	0.00000E+0
 232.27	0.00000E+0
 232.65	0.00000E+0
 233.02	0.00000E+0
 233.40	0.00000E+0
 233.77	0.00000E+0
 234.15	0.00000E+0
 234.53	0.00000E+0
 234.90	0.00000E+0
 235.28	0.00000E+0
 235.65	0.00000E+0
 236.03	0.00000E+0
 236.40	0.00000E+0
 236.78	0.00000E+0
 237.15	0.00000E+0
 237.53	0.00000E+0
 237.91	0.00000E+0
 238.28	0.00000E+0
 238.66	0.00000E+0
 239.03	0.00000E+0
 239.41	0.00000E+0
 239.78	0.00000E+0
 240.16	0.00000E+0
 240.53	0.00000E+0
 240.91	0.00000E+0
 241.28	0.00000E+0
 241.66	0.00000E+0
 242.03	0.00000E+0
 242.41	0.00000E+0
 242.78	0.00000E+0
 243.16	0.00000E+0
 243.53	0.00000E+0
 243.91	0.00000E+0
 244.28	0.00000E+0
 244.66	0.00000E+0
 245.03	0.00000E+0
 245.41	0.00000E+0
 245.78	0.00000E+0
 246.16	0.00000E+0
 246.53	0.00000E+0
 246.91	0.00000E+0
 247.28	0.00000E+0
 247.66	0.00000E+0
 248.03	0.00000E+0
 248.41	0.00000E+0
 248.78	0.00000E+0
 249.15	0.00000E+0
 249.53	0.00000E+0
 249.90	0.00000E+0
 250.28	0.00000E+0
 250.65	0.00000E+0
 251.03	0.00000E+0
 251.40	0.00000E+0
 251.77	0.00000E+0
 252.15	0.00000E+0
 252.52	0.00000E+0
 252.90	0.00000E+0
 253.27	0.00000E+0
 253.64	0.00000E+0
 254.02	0.00000E+0
 254.39	0.00000E+0
 254.77	0.00000E+0
 255.14	0.00000E+0
 255.51	0.00000E+0
 255.89	0.00000E+0
 256.26	0.00000E+0
 256.64	0.00000E+0
 257.01	0.00000E+0
 257.38	0.00000E+0
 257.76	0.00000E+0
 258.13	0.00000E+0
 258.50	0.00000E+0
 258.88	0.00000E+0
 259.25	0.00000E+0
 259.62	0.00000E+0
 260.00	0.00000E+0
 260.37	0.00000E+0
 260.74	0.00000E+0
 261.12	0.00000E+0
 261.49	0.00000E+0
 261.86	0.00000E+0
 262.24	0.00000E+0
 262.61	0.00000E+0
 262.98	0.00000E+0
 263.36	0.00000E+0
 263.73	0.00000E+0
 264.10	0.00000E+0
 264.48	0.00000E+0
 264.85	0.00000E+0
 265.22	0.00000E+0
 265.60	0.00000E+0
 265.97	0.00000E+0
 266.34	0.00000E+0
 266.71	0.00000E+0
 267.09	0.00000E+0
 267.46	0.00000E+0
 267.83	0.00000E+0
 268.21	0.00000E+0
 268.58	0.00000E+0
 268.95	0.00000E+0
 269.32	0.00000E+0
 269.70	0.00000E+0
 270.07	0.00000E+0
 270.44	0.00000E+0
 270.81	0.00000E+0
 271.19	0.00000E+0
 271.56	0.00000E+0
 271.93	0.00000E+0
 272.30	0.00000E+0
 272.68	0.00000E+0
 273.05	0.00000E+0
 273.42	0.00000E+0
 273.79	0.00000E+0
 274.16	0.00000E+0
 274.54	0.00000E+0
 274.91	0.00000E+0
 275.28	0.00000E+0
 275.65	0.00000E+0
 276.02	0.00000E+0
 276.40	0.00000E+0
 276.77	0.00000E+0
 277.14	0.00000E+0
 277.51	0.00000E+0
 277.88	0.00000E+0
 278.26	0.00000E+0
 278.63	0.00000E+0
 279.00	0.00000E+0
 279.37	0.00000E+0
 279.74	0.00000E+0
 280.11	0.00000E+0
 280.48	0.00000E+0
 280.86	0.00000E+0
 281.23	0.00000E+0
 281.60	0.00000E+0
 281.97	0.00000E+0
 282.34	0.00000E+0
 282.71	0.00000E+0
 283.08	0.00000E+0
 283.46	0.00000E+0
 283.83	0.00000E+0
 284.20	0.00000E+0
 284.57	0.00000E+0
 284.94	0.00000E+0
 285.31	0.00000E+0
 285.68	0.00000E+0
 286.05	0.00000E+0
 286.42	0.00000E+0
 286.80	0.00000E+0
 287.17	0.00000E+0
 287.54	0.00000E+0
 287.91	0.00000E+0
 288.28	0.00000E+0
 288.65	0.00000E+0
 289.02	0.00000E+0
 289.39	0.00000E+0
 289.76	0.00000E+0
 290.13	0.00000E+0
 290.50	0.00000E+0
 290.87	0.00000E+0
 291.24	0.00000E+0
 291.62	0.00000E+0
 291.99	0.00000E+0
 292.36	0.00000E+0
 292.73	0.00000E+0
 293.10	0.00000E+0
 293.47	0.00000E+0
 293.84	0.00000E+0
 294.21	0.00000E+0
 294.58	0.00000E+0
 294.95	0.00000E+0
 295.32	0.00000E+0
 295.69	0.00000E+0
 296.06	0.00000E+0
 296.43	0.00000E+0
 296.80	0.00000E+0
 297.17	0.00000E+0
 297.54	0.00000E+0
 297.91	0.00000E+0
 298.28	0.00000E+0
 298.65	0.00000E+0
 299.02	0.00000E+0
 299.39	0.00000E+0
 299.76	0.00000E+0
 300.13	0.00000E+0
 300.50	0.00000E+0
 300.87	0.00000E+0
 301.24	0.00000E+0
 301.61	0.00000E+0
 301.97	0.00000E+0
 302.34	0.00000E+0
 302.71	0.00000E+0
 303.08	0.00000E+0
 303.45	0.00000E+0
 303.82	0.00000E+0
 304.19	0.00000E+0
 304.56	0.00000E+0
 304.93	0.00000E+0
 305.30	0.00000E+0
 305.67	0.00000E+0
 306.04	0.00000E+0
 306.41	0.00000E+0
 306.77	0.00000E+0
 307.14	0.00000E+0
 307.51	0.00000E+0
 307.88	0.00000E+0
 308.25	0.00000E+0
 308.62	0.00000E+0
 308.99	0.00000E+0
 309.36	0.00000E+0
 309.73	0.00000E+0
 310.09	0.00000E+0
 310.46	0.00000E+0
 310.83	0.00000E+0
 311.20	0.00000E+0
 311.57	0.00000E+0
 311.94	0.00000E+0
 312.31	0.00000E+0
 312.67	0.00000E+0
 313.04	0.00000E+0
 313.41	0.00000E+0
 313.78	0.00000E+0
 314.15	0.00000E+0
 314.52	0.00000E+0
 314.88	0.00000E+0
 315.25	0.00000E+0
 315.62	0.00000E+0
 315.99	0.00000E+0
 316.36	0.00000E+0
 316.73	0.00000E+0
 317.09	0.00000E+0
 317.46	0.00000E+0
 317.83	0.00000E+0
 318.20	0.00000E+0
 318.57	0.00000E+0
 318.93	0.00000E+0
 319.30	0.00000E+0
 319.67	0.00000E+0
 320.04	0.00000E+0
 320.40	0.00000E+0
 320.77	0.00000E+0
 321.14	0.00000E+0
 321.51	0.00000E+0
 321.88	0.00000E+0
 322.24	0.00000E+0
 322.61	0.00000E+0
 322.98	0.00000E+0
 323.35	0.00000E+0
 323.71	0.00000E+0
 324.08	0.00000E+0
 324.45	0.00000E+0
 324.81	0.00000E+0
 325.18	0.00000E+0
 325.55	0.00000E+0
 325.92	0.00000E+0
 326.28	0.00000E+0
 326.65	0.00000E+0
 327.02	0.00000E+0
 327.38	0.00000E+0
 327.75	0.00000E+0
 328.12	0.00000E+0
 328.49	0.00000E+0
 328.85	0.00000E+0
 329.22	0.00000E+0
 329.59	0.00000E+0
 329.95	0.00000E+0
 330.32	0.00000E+0
 330.69	0.00000E+0
 331.05	0.00000E+0
 331.42	0.00000E+0
 331.79	0.00000E+0
 332.15	0.00000E+0
 332.52	0.00000E+0
 332.89	0.00000E+0
 333.25	0.00000E+0
 333.62	0.00000E+0
 333.99	0.00000E+0
 334.35	0.00000E+0
 334.72	0.00000E+0
 335.08	0.00000E+0
 335.45	0.00000E+0
 335.82	0.00000E+0
 336.18	0.00000E+0
 336.55	0.00000E+0
 336.91	0.00000E+0
 337.28	0.00000E+0
 337.65	0.00000E+0
 338.01	0.00000E+0
 338.38	0.00000E+0
 338.74	0.00000E+0
 339.11	0.00000E+0
 339.48	0.00000E+0
 339.84	0.00000E+0
 340.21	0.00000E+0
 340.57	0.00000E+0
 340.94	0.00000E+0
 341.31	0.00000E+0
 341.67	0.00000E+0
 342.04	0.00000E+0
 342.40	0.00000E+0
 342.77	0.00000E+0
 343.13	0.00000E+0
 343.50	0.00000E+0
 343.86	0.00000E+0
 344.23	0.00000E+0
 344.59	0.00000E+0
 344.96	0.00000E+0
 345.33	0.00000E+0
 345.69	0.00000E+0
 346.06	0.00000E+0
 346.42	0.00000E+0
 346.79	0.00000E+0
 347.15	0.00000E+0
 347.52	0.00000E+0
 347.88	0.00000E+0
 348.25	0.00000E+0
 348.61	0.00000E+0
 348.98	0.00000E+0
 349.34	0.00000E+0
 349.71	0.00000E+0
 350.07	0.00000E+0
 350.44	0.00000E+0
 350.80	0.00000E+0
 351.16	0.00000E+0
 351.53	0.00000E+0
 351.89	0.00000E+0
 352.26	0.00000E+0
 352.62	0.00000E+0
 352.99	0.00000E+0
 353.35	0.00000E+0
 353.72	0.00000E+0
 354.08	0.00000E+0
 354.45	0.00000E+0
 354.81	0.00000E+0
 355.17	0.00000E+0
 355.54	0.00000E+0
 355.90	0.00000E+0
 356.27	0.00000E+0
 356.63	0.00000E+0
 356.99	0.00000E+0
 357.36	0.00000E+0
 357.72	0.00000E+0
 358.09	0.00000E+0
 358.45	0.00000E+0
 358.81	0.00000E+0
 359.18	0.00000E+0
 359.54	0.00000E+0
 359.91	0.00000E+0
 360.27	0.00000E+0
 360.63	0.00000E+0
 361.00	0.00000E+0
 361.36	0.00000E+0
 361.72	0.00000E+0
 362.09	0.00000E+0
 362.45	0.00000E+0
 362.82	0.00000E+0
 363.18	0.00000E+0
 363.54	0.00000E+0
 363.91	0.00000E+0
 364.27	0.00000E+0
 364.63	0.00000E+0
 365.00	0.00000E+0
 365.36	0.00000E+0
 365.72	0.00000E+0
 366.09	0.00000E+0
 366.45	0.00000E+0
 366.81	0.00000E+0
 367.17	0.00000E+0
 367.54	0.00000E+0
 367.90	0.00000E+0
 368.26	0.00000E+0
 368.63	0.00000E+0
 368.99	0.00000E+0
 369.35	0.00000E+0
 369.71	0.00000E+0
 370.08	0.00000E+0
 370.44	0.00000E+0
 370.80	0.00000E+0
 371.17	0.00000E+0
 371.53	0.00000E+0
 371.89	0.00000E+0
 372.25	0.00000E+0
 372.62	0.00000E+0
 372.98	0.00000E+0
 373.34	0.00000E+0
 373.70	0.00000E+0
 374.07	0.00000E+0
 374.43	0.00000E+0
 374.79	0.00000E+0
 375.15	0.00000E+0
 375.51	0.00000E+0
 375.88	0.00000E+0
 376.24	0.00000E+0
 376.60	0.00000E+0
 376.96	0.00000E+0
 377.33	0.00000E+0
 377.69	0.00000E+0
 378.05	0.00000E+0
 378.41	0.00000E+0
 378.77	0.00000E+0
 379.13	0.00000E+0
 379.50	0.00000E+0
 379.86	0.00000E+0
 380.22	0.00000E+0
 380.58	0.00000E+0
 380.94	0.00000E+0
 381.31	0.00000E+0
 381.67	0.00000E+0
 382.03	0.00000E+0
 382.39	0.00000E+0
 382.75	0.00000E+0
 383.11	0.00000E+0
 383.47	0.00000E+0
 383.84	0.00000E+0
 384.20	0.00000E+0
 384.56	0.00000E+0
 384.92	0.00000E+0
 385.28	0.00000E+0
 385.64	0.00000E+0
 386.00	0.00000E+0
 386.36	0.00000E+0
 386.73	0.00000E+0
 387.09	0.00000E+0
 387.45	0.00000E+0
 387.81	0.00000E+0
 388.17	0.00000E+0
 388.53	0.00000E+0
 388.89	0.00000E+0
 389.25	0.00000E+0
 389.61	0.00000E+0
 389.97	0.00000E+0
 390.33	0.00000E+0
 390.69	0.00000E+0
 391.05	0.00000E+0
 391.42	0.00000E+0
 391.78	0.00000E+0
 392.14	0.00000E+0
 392.50	0.00000E+0
 392.86	0.00000E+0
 393.22	0.00000E+0
 393.58	0.00000E+0
 393.94	0.00000E+0
 394.30	0.00000E+0
 394.66	0.00000E+0
 395.02	0.00000E+0
 395.38	0.00000E+0
 395.74	0.00000E+0
 396.10	0.00000E+0
 396.46	0.00000E+0
 396.82	0.00000E+0
 397.18	0.00000E+0
 397.54	0.00000E+0
 397.90	0.00000E+0
 398.26	0.00000E+0
 398.62	0.00000E+0
 398.98	0.00000E+0
 399.34	0.00000E+0
 399.70	0.00000E+0
 400.06	0.00000E+0
 400.42	0.00000E+0
 400.78	0.00000E+0
 401.14	0.00000E+0
 401.50	0.00000E+0
 401.86	0.00000E+0
 402.22	0.00000E+0
 402.57	0.00000E+0
 402.93	0.00000E+0
 403.29	0.00000E+0
 403.65	0.00000E+0
 404.01	0.00000E+0
 404.37	0.00000E+0
 404.73	0.00000E+0
 405.09	0.00000E+0
 405.45	0.00000E+0
 405.81	0.00000E+0
 406.17	0.00000E+0
 406.53	0.00000E+0
 406.88	0.00000E+0
 407.24	0.00000E+0
 407.60	0.00000E+0
 407.96	0.00000E+0
 408.32	0.00000E+0
 408.68	0.00000E+0
 409.04	0.00000E+0
 409.40	0.00000E+0
 409.75	0.00000E+0
 410.11	0.00000E+0
 410.47	0.00000E+0
 410.83	0.00000E+0
 411.19	0.00000E+0
 411.55	0.00000E+0
 411.91	0.00000E+0
 412.26	0.00000E+0
 412.62	0.00000E+0
 412.98	0.00000E+0
 413.34	0.00000E+0
 413.70	0.00000E+0
 414.06	0.00000E+0
 414.41	0.00000E+0
 414.77	0.00000E+0
 415.13	0.00000E+0
 415.49	0.00000E+0
 415.85	0.00000E+0
 416.20	0.00000E+0
 416.56	0.00000E+0
 416.92	0.00000E+0
 417.28	0.00000E+0
 417.64	0.00000E+0
 417.99	0.00000E+0
 418.35	0.00000E+0
 418.71	0.00000E+0
 419.07	0.00000E+0
 419.42	0.00000E+0
 419.78	0.00000E+0
 420.14	0.00000E+0
 420.50	0.00000E+0
 420.85	0.00000E+0
 421.21	0.00000E+0
 421.57	0.00000E+0
 421.93	0.00000E+0
 422.28	0.00000E+0
 422.64	0.00000E+0
 423.00	0.00000E+0
 423.36	0.00000E+0
 423.71	0.00000E+0
 424.07	0.00000E+0
 424.43	0.00000E+0
 424.78	0.00000E+0
 425.14	0.00000E+0
 425.50	0.00000E+0
 425.85	0.00000E+0
 426.21	0.00000E+0
 426.57	0.00000E+0
 426.93	0.00000E+0
 427.28	0.00000E+0
 427.64	0.00000E+0
 428.00	0.00000E+0
 428.35	0.00000E+0
 428.71	0.00000E+0
 429.07	0.00000E+0
 429.42	0.00000E+0
 429.78	0.00000E+0
 430.13	0.00000E+0
 430.49	0.00000E+0
 430.85	0.00000E+0
 431.20	0.00000E+0
 431.56	0.00000E+0
 431.92	0.00000E+0
 432.27	0.00000E+0
 432.63	0.00000E+0
 432.99	0.00000E+0
 433.34	0.00000E+0
 433.70	0.00000E+0
 434.05	0.00000E+0
 434.41	0.00000E+0
 434.77	0.00000E+0
 435.12	0.00000E+0
 435.48	0.00000E+0
 435.83	0.00000E+0
 436.19	0.00000E+0
 436.54	0.00000E+0
 436.90	0.00000E+0
 437.26	0.00000E+0
 437.61	0.00000E+0
 437.97	0.00000E+0
 438.32	0.00000E+0
 438.68	0.00000E+0
 439.03	0.00000E+0
 439.39	0.00000E+0
 439.75	0.00000E+0
 440.10	0.00000E+0
 440.46	0.00000E+0
 440.81	0.00000E+0
 441.17	0.00000E+0
 441.52	0.00000E+0
 441.88	0.00000E+0
 442.23	0.00000E+0
 442.59	0.00000E+0
 442.94	0.00000E+0
 443.30	0.00000E+0
 443.65	0.00000E+0
 444.01	0.00000E+0
 444.36	0.00000E+0
 444.72	0.00000E+0
 445.07	0.00000E+0
 445.43	0.00000E+0
 445.78	0.00000E+0
 446.14	0.00000E+0
 446.49	0.00000E+0
 446.85	0.00000E+0
 447.20	0.00000E+0
 447.56	0.00000E+0
 447.91	0.00000E+0
 448.26	0.00000E+0
 448.62	0.00000E+0
 448.97	0.00000E+0
 449.33	0.00000E+0
 449.68	0.00000E+0
 450.04	0.00000E+0
 450.39	0.00000E+0
 450.74	0.00000E+0
 451.10	0.00000E+0
 451.45	0.00000E+0
 451.81	0.00000E+0
 452.16	0.00000E+0
 452.52	0.00000E+0
 452.87	0.00000E+0
 453.22	0.00000E+0
 453.58	0.00000E+0
 453.93	0.00000E+0
 454.28	0.00000E+0
 454.64	0.00000E+0
 454.99	0.00000E+0
 455.35	0.00000E+0
 455.70	0.00000E+0
 456.05	0.00000E+0
 456.41	0.00000E+0
 456.76	0.00000E+0
 457.11	0.00000E+0
 457.47	0.00000E+0
 457.82	0.00000E+0
 458.17	0.00000E+0
 458.53	0.00000E+0
 458.88	0.00000E+0
 459.23	0.00000E+0
 459.59	0.00000E+0
 459.94	0.00000E+0
 460.29	0.00000E+0
 460.65	0.00000E+0
 461.00	0.00000E+0
 461.35	0.00000E+0
 461.71	0.00000E+0
 462.06	0.00000E+0
 462.41	0.00000E+0
 462.77	0.00000E+0
 463.12	0.00000E+0
 463.47	0.00000E+0
 463.82	0.00000E+0
 464.18	0.00000E+0
 464.53	0.00000E+0
 464.88	0.00000E+0
 465.23	0.00000E+0
 465.59	0.00000E+0
 465.94	0.00000E+0
 466.29	0.00000E+0
 466.64	0.00000E+0
 467.00	0.00000E+0
 467.35	0.00000E+0
 467.70	0.00000E+0
 468.05	0.00000E+0
 468.41	0.00000E+0
 468.76	0.00000E+0
 469.11	0.00000E+0
 469.46	0.00000E+0
 469.82	0.00000E+0
 470.17	0.00000E+0
 470.52	0.00000E+0
 470.87	0.00000E+0
 471.22	0.00000E+0
 471.58	0.00000E+0
 471.93	0.00000E+0
 472.28	0.00000E+0
 472.63	0.00000E+0
 472.98	0.00000E+0
 473.33	0.00000E+0
 473.69	0.00000E+0
 474.04	0.00000E+0
 474.39	0.00000E+0
 474.74	0.00000E+0
 475.09	0.00000E+0
 475.44	0.00000E+0
 475.80	0.00000E+0
 476.15	0.00000E+0
 476.50	0.00000E+0
 476.85	0.00000E+0
 477.20	0.00000E+0
 477.55	0.00000E+0
 477.90	0.00000E+0
 478.25	0.00000E+0
 478.61	0.00000E+0
 478.96	0.00000E+0
 479.31	0.00000E+0
 479.66	0.00000E+0
 480.01	0.00000E+0
 480.36	0.00000E+0
 480.71	0.00000E+0
 481.06	0.00000E+0
 481.41	0.00000E+0
 481.76	0.00000E+0
 482.11	0.00000E+0
 482.47	0.00000E+0
 482.82	0.00000E+0
 483.17	0.00000E+0
 483.52	0.00000E+0
 483.87	0.00000E+0
 484.22	0.00000E+0
 484.57	0.00000E+0
 484.92	0.00000E+0
 485.27	0.00000E+0
 485.62	0.00000E+0
 485.97	0.00000E+0
 486.32	0.00000E+0
 486.67	0.00000E+0
 487.02	0.00000E+0
 487.37	0.00000E+0
 487.72	0.00000E+0
 488.07	0.00000E+0
 488.42	0.00000E+0
 488.77	0.00000E+0
 489.12	0.00000E+0
 489.47	0.00000E+0
 489.82	0.00000E+0
 490.17	0.00000E+0
 490.52	0.00000E+0
 490.87	0.00000E+0
 491.22	0.00000E+0
 491.57	0.00000E+0
 491.92	0.00000E+0
 492.27	0.00000E+0
 492.62	0.00000E+0
 492.97	0.00000E+0
 493.32	0.00000E+0
 493.67	0.00000E+0
 494.02	0.00000E+0
 494.37	0.00000E+0
 494.71	0.00000E+0
 495.06	0.00000E+0
 495.41	0.00000E+0
 495.76	0.00000E+0
 496.11	0.00000E+0
 496.46	0.00000E+0
 496.81	0.00000E+0
 497.16	0.00000E+0
 497.51	0.00000E+0
 497.86	0.00000E+0
 498.21	0.00000E+0
 498.55	0.00000E+0
 498.90	0.00000E+0
 499.25	0.00000E+0
 499.60	0.00000E+0
 499.95	0.00000E+0
 500.30	0.00000E+0
 500.65	0.00000E+0
 501.00	0.00000E+0
 501.34	0.00000E+0
 501.69	0.00000E+0
 502.04	0.00000E+0
 502.39	0.00000E+0
 502.74	0.00000E+0
 503.09	0.00000E+0
 503.43	0.00000E+0
 503.78	0.00000E+0
 504.13	0.00000E+0
 504.48	0.00000E+0
 504.83	0.00000E+0
 505.18	0.00000E+0
 505.52	0.00000E+0
 505.87	0.00000E+0
 506.22	0.00000E+0
 506.57	0.00000E+0
 506.92	0.00000E+0
 507.26	0.00000E+0
 507.61	0.00000E+0
 507.96	0.00000E+0
 508.31	0.00000E+0
 508.65	0.00000E+0
 509.00	0.00000E+0
 509.35	0.00000E+0
 509.70	0.00000E+0
 510.04	0.00000E+0
 510.39	0.00000E+0
 510.74	0.00000E+0
 511.09	0.00000E+0
 511.43	0.00000E+0
 511.78	0.00000E+0
 512.13	0.00000E+0
 512.48	0.00000E+0
 512.82	0.00000E+0
 513.17	0.00000E+0
 513.52	0.00000E+0
 513.86	0.00000E+0
 514.21	0.00000E+0
 514.56	0.00000E+0
 514.91	0.00000E+0
 515.25	0.00000E+0
 515.60	0.00000E+0
 515.95	0.00000E+0
 516.29	0.00000E+0
 516.64	0.00000E+0
 516.99	0.00000E+0
 517.33	0.00000E+0
 517.68	0.00000E+0
 518.03	0.00000E+0
 518.37	0.00000E+0
 518.72	0.00000E+0
 519.07	0.00000E+0
 519.41	0.00000E+0
 519.76	0.00000E+0
 520.11	0.00000E+0
 520.45	0.00000E+0
 520.80	0.00000E+0
 521.14	0.00000E+0
 521.49	0.00000E+0
 521.84	0.00000E+0
 522.18	0.00000E+0
 522.53	0.00000E+0
 522.87	0.00000E+0
 523.22	0.00000E+0
 523.57	0.00000E+0
 523.91	0.00000E+0
 524.26	0.00000E+0
 524.60	0.00000E+0
 524.95	0.00000E+0
 525.30	0.00000E+0
 525.64	0.00000E+0
 525.99	0.00000E+0
 526.33	0.00000E+0
 526.68	0.00000E+0
 527.02	0.00000E+0
 527.37	0.00000E+0
 527.72	0.00000E+0
 528.06	0.00000E+0
 528.41	0.00000E+0
 528.75	0.00000E+0
 529.10	0.00000E+0
 529.44	0.00000E+0
 529.79	0.00000E+0
 530.13	0.00000E+0
 530.48	0.00000E+0
 530.82	0.00000E+0
 531.17	0.00000E+0
 531.51	0.00000E+0
 531.86	0.00000E+0
 532.20	0.00000E+0
 532.55	0.00000E+0
 532.89	0.00000E+0
 533.24	0.00000E+0
 533.58	0.00000E+0
 533.93	0.00000E+0
 534.27	0.00000E+0
 534.62	0.00000E+0
 534.96	0.00000E+0
 535.31	0.00000E+0
 535.65	0.00000E+0
 535.99	0.00000E+0
 536.34	0.00000E+0
 536.68	0.00000E+0
 537.03	0.00000E+0
 537.37	0.00000E+0
 537.72	0.00000E+0
 538.06	0.00000E+0
