OOIBase32 Version 2.0.0.6 Data File
++++++++++++++++++++++++++++++++++++
Date: 01-18-2012, 22:56:39
User: Valued Ocean Optics Customer
Spectrometer Serial Number: USB2E2917
Spectrometer Channel: Master
Integration Time (msec): 5
Spectra Averaged: 10
Boxcar Smoothing: 5
Correct for Electrical Dark: Enabled
Time Normalized: Disabled
Dual-beam Reference: Disabled
Reference Channel: Master
Temperature: Not acquired
Spectrometer Type: S2000
ADC Type: USB2000
Number of Pixels in File: 2048
Graph Title: 
>>>>>Begin Spectral Data<<<<<
180.30	0.000
180.67	0.000
181.03	-459.921
181.40	220.888
181.77	126.526
182.14	-260.508
182.51	41.405
182.88	84.675
183.25	-13.192
183.62	41.445
183.99	-17.238
184.36	95.692
184.73	78.264
185.10	38.214
185.46	131.137
185.83	59.602
186.20	-193.581
186.57	-545.683
186.94	-41.755
187.31	-207.027
187.68	-11.670
188.05	39.586
188.42	29.322
188.78	52.946
189.15	52.763
189.52	31.098
189.89	34.678
190.26	42.447
190.63	25.846
191.00	29.540
191.37	48.398
191.73	49.197
192.10	51.696
192.47	54.311
192.84	56.518
193.21	72.997
193.58	60.710
193.94	35.147
194.31	12.502
194.68	25.809
195.05	30.034
195.42	22.893
195.79	36.625
196.15	27.603
196.52	24.618
196.89	21.927
197.26	0.158
197.63	7.612
198.00	18.836
198.36	15.332
198.73	16.617
199.10	13.573
199.47	12.781
199.84	7.778
200.20	5.200
200.57	1.526
200.94	0.125
201.31	18.756
201.68	16.016
202.04	11.664
202.41	12.777
202.78	16.901
203.15	5.872
203.51	13.674
203.88	15.124
204.25	34.101
204.62	35.947
204.98	41.225
205.35	37.422
205.72	36.938
206.09	36.847
206.46	25.368
206.82	23.647
207.19	40.217
207.56	32.658
207.92	33.329
208.29	37.673
208.66	49.578
209.03	46.685
209.39	61.027
209.76	69.808
210.13	70.798
210.50	88.691
210.86	107.807
211.23	98.103
211.60	99.012
211.96	91.713
212.33	80.386
212.70	71.946
213.07	69.813
213.43	56.168
213.80	54.033
214.17	55.569
214.53	52.115
214.90	39.078
215.27	30.120
215.63	21.395
216.00	27.946
216.37	28.451
216.74	20.974
217.10	17.020
217.47	17.360
217.84	13.540
218.20	16.317
218.57	9.739
218.94	14.409
219.30	13.545
219.67	15.623
220.04	16.432
220.40	8.694
220.77	3.946
221.13	4.050
221.50	-0.331
221.87	-0.333
222.23	-7.334
222.60	-6.221
222.97	-11.470
223.33	-14.296
223.70	-13.680
224.07	-17.378
224.43	-9.404
224.80	-4.313
225.16	-3.108
225.53	-0.507
225.90	0.709
226.26	1.978
226.63	2.277
226.99	4.461
227.36	4.945
227.73	5.976
228.09	5.695
228.46	5.139
228.82	5.587
229.19	7.121
229.56	5.484
229.92	6.576
230.29	6.983
230.65	5.631
231.02	5.044
231.38	5.300
231.75	0.496
232.12	0.784
232.48	0.711
232.85	-0.084
233.21	-0.585
233.58	1.023
233.94	-0.378
234.31	-0.982
234.68	2.576
235.04	3.137
235.41	3.369
235.77	7.260
236.14	7.384
236.50	8.150
236.87	6.019
237.23	5.338
237.60	4.840
237.96	3.577
238.33	4.164
238.69	4.445
239.06	3.851
239.42	4.070
239.79	3.985
240.15	4.308
240.52	4.706
240.88	6.135
241.25	6.340
241.61	6.423
241.98	7.039
242.34	7.188
242.71	6.262
243.07	6.092
243.44	5.799
243.80	5.890
244.17	5.485
244.53	5.503
244.90	5.102
245.26	4.869
245.63	4.722
245.99	4.623
246.36	4.491
246.72	4.830
247.09	5.339
247.45	5.164
247.81	4.958
248.18	5.311
248.54	5.240
248.91	5.339
249.27	5.473
249.64	5.732
250.00	5.802
250.36	6.047
250.73	5.173
251.09	4.250
251.46	4.534
251.82	4.628
252.19	4.132
252.55	3.766
252.91	3.637
253.28	3.571
253.64	3.542
254.01	3.415
254.37	3.756
254.73	4.734
255.10	4.889
255.46	4.770
255.83	4.310
256.19	4.262
256.55	4.338
256.92	4.120
257.28	3.996
257.65	4.001
258.01	4.121
258.37	4.059
258.74	4.047
259.10	4.153
259.46	4.187
259.83	4.227
260.19	4.425
260.55	4.540
260.92	4.708
261.28	4.997
261.64	5.106
262.01	4.980
262.37	4.906
262.73	4.602
263.10	5.164
263.46	4.965
263.82	5.038
264.19	5.056
264.55	4.673
264.91	5.147
265.28	4.888
265.64	4.839
266.00	4.874
266.37	4.465
266.73	4.425
267.09	3.881
267.46	3.920
267.82	3.923
268.18	3.760
268.54	3.966
268.91	3.593
269.27	3.354
269.63	3.207
270.00	2.955
270.36	2.892
270.72	2.964
271.08	2.864
271.45	2.931
271.81	2.994
272.17	3.155
272.53	2.893
272.90	2.593
273.26	2.760
273.62	2.556
273.98	2.958
274.35	3.276
274.71	3.163
275.07	3.204
275.43	2.589
275.80	2.729
276.16	2.894
276.52	3.223
276.88	3.457
277.25	3.641
277.61	3.940
277.97	3.743
278.33	3.410
278.69	3.676
279.06	4.197
279.42	4.598
279.78	4.473
280.14	4.197
280.50	4.111
280.87	3.994
281.23	3.926
281.59	3.962
281.95	4.050
282.31	4.247
282.68	4.152
283.04	3.867
283.40	3.878
283.76	3.985
284.12	3.825
284.48	3.551
284.85	3.418
285.21	3.210
285.57	3.056
285.93	3.035
286.29	3.085
286.65	3.085
287.02	2.985
287.38	3.116
287.74	3.135
288.10	3.230
288.46	3.377
288.82	3.547
289.18	3.659
289.54	3.857
289.91	4.123
290.27	4.042
290.63	3.914
290.99	4.068
291.35	4.206
291.71	4.382
292.07	4.373
292.43	4.351
292.79	4.349
293.16	4.107
293.52	3.887
293.88	3.612
294.24	3.577
294.60	3.825
294.96	3.876
295.32	3.767
295.68	3.547
296.04	3.639
296.40	3.754
296.76	3.917
297.12	4.081
297.49	4.094
297.85	4.049
298.21	4.280
298.57	4.338
298.93	4.226
299.29	4.230
299.65	4.248
300.01	4.361
300.37	4.320
300.73	4.193
301.09	4.465
301.45	4.671
301.81	4.921
302.17	4.937
302.53	4.867
302.89	4.822
303.25	4.778
303.61	4.819
303.97	4.670
304.33	4.728
304.69	4.655
305.05	4.544
305.41	4.529
305.77	4.253
306.13	4.229
306.49	4.202
306.85	4.359
307.21	4.500
307.57	4.456
307.93	4.543
308.29	4.673
308.65	4.807
309.01	4.887
309.37	4.870
309.73	5.000
310.09	5.005
310.45	4.924
310.81	4.828
311.17	4.831
311.53	4.872
311.89	4.914
312.25	4.811
312.61	4.886
312.96	4.891
313.32	4.971
313.68	4.934
314.04	4.956
314.40	4.990
314.76	5.052
315.12	5.107
315.48	5.310
315.84	5.436
316.20	5.315
316.56	5.208
316.92	5.193
317.27	5.122
317.63	5.241
317.99	5.190
318.35	5.280
318.71	5.136
319.07	5.095
319.43	4.968
319.79	4.803
320.15	4.986
320.50	4.921
320.86	4.815
321.22	4.875
321.58	4.835
321.94	4.906
322.30	5.007
322.66	5.295
323.01	5.337
323.37	5.492
323.73	5.593
324.09	5.459
324.45	5.694
324.81	5.928
325.17	5.985
325.52	6.083
325.88	5.952
326.24	5.944
326.60	5.931
326.96	6.012
327.31	6.035
327.67	6.002
328.03	6.180
328.39	6.149
328.75	6.022
329.11	6.155
329.46	6.061
329.82	6.216
330.18	6.331
330.54	6.441
330.90	6.517
331.25	6.524
331.61	6.571
331.97	6.421
332.33	6.306
332.68	6.251
333.04	6.103
333.40	6.268
333.76	6.229
334.11	6.183
334.47	6.187
334.83	6.109
335.19	6.022
335.54	6.082
335.90	6.219
336.26	6.329
336.62	6.464
336.97	6.438
337.33	6.385
337.69	6.386
338.05	6.436
338.40	6.269
338.76	6.196
339.12	6.248
339.48	6.170
339.83	6.257
340.19	6.363
340.55	6.417
340.90	6.569
341.26	6.609
341.62	6.631
341.97	6.642
342.33	6.702
342.69	6.677
343.04	6.605
343.40	6.660
343.76	6.711
344.12	6.716
344.47	6.758
344.83	6.646
345.19	6.573
345.54	6.572
345.90	6.470
346.26	6.349
346.61	6.489
346.97	6.507
347.32	6.551
347.68	6.404
348.04	6.262
348.39	6.234
348.75	6.296
349.11	6.317
349.46	6.257
349.82	6.296
350.18	6.397
350.53	6.386
350.89	6.411
351.24	6.429
351.60	6.593
351.96	6.729
352.31	6.825
352.67	6.825
353.02	6.894
353.38	7.052
353.74	7.080
354.09	7.140
354.45	7.144
354.80	7.142
355.16	7.086
355.52	7.031
355.87	6.978
356.23	6.844
356.58	6.869
356.94	6.812
357.29	6.680
357.65	6.589
358.00	6.629
358.36	6.539
358.72	6.649
359.07	6.602
359.43	6.577
359.78	6.538
360.14	6.563
360.49	6.578
360.85	6.562
361.20	6.656
361.56	6.711
361.91	6.660
362.27	6.661
362.62	6.632
362.98	6.767
363.33	6.838
363.69	6.839
364.04	6.813
364.40	6.796
364.75	6.855
365.11	6.895
365.46	6.897
365.82	6.889
366.17	6.927
366.53	6.899
366.88	6.812
367.24	6.803
367.59	6.804
367.95	6.824
368.30	6.861
368.66	6.850
369.01	6.784
369.37	6.835
369.72	6.842
370.08	6.881
370.43	6.908
370.78	6.919
371.14	6.952
371.49	7.018
371.85	7.063
372.20	6.956
372.56	7.002
372.91	7.037
373.26	7.004
373.62	6.980
373.97	6.910
374.33	6.883
374.68	6.910
375.03	6.785
375.39	6.736
375.74	6.720
376.10	6.826
376.45	6.813
376.80	6.818
377.16	6.880
377.51	6.927
377.87	6.961
378.22	7.012
378.57	7.005
378.93	7.096
379.28	7.180
379.63	7.218
379.99	7.245
380.34	7.242
380.70	7.278
381.05	7.285
381.40	7.334
381.76	7.447
382.11	7.491
382.46	7.571
382.82	7.584
383.17	7.619
383.52	7.700
383.88	7.744
384.23	7.803
384.58	7.833
384.94	7.841
385.29	7.843
385.64	7.837
385.99	7.800
386.35	7.860
386.70	7.953
387.05	7.966
387.41	7.912
387.76	7.881
388.11	7.926
388.47	7.875
388.82	7.900
389.17	7.985
389.52	7.997
389.88	8.070
390.23	8.049
390.58	8.072
390.93	8.004
391.29	8.029
391.64	8.068
391.99	8.039
392.34	8.109
392.70	8.167
393.05	8.132
393.40	8.165
393.75	8.160
394.11	8.185
394.46	8.140
394.81	8.250
395.16	8.270
395.52	8.245
395.87	8.248
396.22	8.280
396.57	8.257
396.92	8.287
397.28	8.271
397.63	8.231
397.98	8.261
398.33	8.302
398.68	8.293
399.04	8.314
399.39	8.377
399.74	8.355
400.09	8.391
400.44	8.393
400.80	8.361
401.15	8.382
401.50	8.440
401.85	8.397
402.20	8.398
402.55	8.388
402.90	8.390
403.26	8.395
403.61	8.442
403.96	8.426
404.31	8.447
404.66	8.479
405.01	8.515
405.36	8.518
405.72	8.590
406.07	8.611
406.42	8.629
406.77	8.637
407.12	8.632
407.47	8.653
407.82	8.674
408.17	8.698
408.53	8.740
408.88	8.722
409.23	8.770
409.58	8.776
409.93	8.768
410.28	8.741
410.63	8.846
410.98	8.915
411.33	8.955
411.68	8.981
412.03	9.030
412.38	9.059
412.73	9.113
413.09	9.108
413.44	9.107
413.79	9.163
414.14	9.224
414.49	9.194
414.84	9.190
415.19	9.218
415.54	9.233
415.89	9.227
416.24	9.271
416.59	9.288
416.94	9.319
417.29	9.332
417.64	9.335
417.99	9.368
418.34	9.389
418.69	9.410
419.04	9.419
419.39	9.446
419.74	9.457
420.09	9.454
420.44	9.456
420.79	9.482
421.14	9.505
421.49	9.504
421.84	9.486
422.19	9.503
422.54	9.518
422.89	9.515
423.24	9.505
423.59	9.524
423.94	9.540
424.29	9.544
424.64	9.523
424.99	9.497
425.34	9.528
425.68	9.587
426.03	9.594
426.38	9.594
426.73	9.620
427.08	9.657
427.43	9.680
427.78	9.656
428.13	9.702
428.48	9.773
428.83	9.860
429.18	9.885
429.53	9.892
429.87	9.915
430.22	9.940
430.57	9.971
430.92	10.006
431.27	10.029
431.62	10.043
431.97	10.050
432.32	10.027
432.67	9.998
433.01	10.001
433.36	10.005
433.71	9.992
434.06	10.010
434.41	10.037
434.76	10.023
435.11	10.060
435.45	10.117
435.80	10.142
436.15	10.159
436.50	10.200
436.85	10.201
437.20	10.210
437.54	10.256
437.89	10.271
438.24	10.264
438.59	10.273
438.94	10.250
439.29	10.235
439.63	10.221
439.98	10.240
440.33	10.249
440.68	10.288
441.03	10.290
441.37	10.285
441.72	10.313
442.07	10.336
442.42	10.371
442.76	10.391
443.11	10.415
443.46	10.436
443.81	10.435
444.16	10.429
444.50	10.425
444.85	10.453
445.20	10.462
445.55	10.433
445.89	10.439
446.24	10.426
446.59	10.412
446.94	10.411
447.28	10.400
447.63	10.391
447.98	10.400
448.32	10.386
448.67	10.371
449.02	10.357
449.37	10.362
449.71	10.347
450.06	10.331
450.41	10.337
450.75	10.336
451.10	10.356
451.45	10.384
451.79	10.353
452.14	10.356
452.49	10.338
452.84	10.343
453.18	10.335
453.53	10.348
453.88	10.356
454.22	10.376
454.57	10.393
454.92	10.423
455.26	10.441
455.61	10.521
455.95	10.556
456.30	10.609
456.65	10.644
456.99	10.683
457.34	10.707
457.69	10.746
458.03	10.748
458.38	10.764
458.73	10.767
459.07	10.799
459.42	10.790
459.76	10.791
460.11	10.799
460.46	10.803
460.80	10.811
461.15	10.815
461.49	10.808
461.84	10.845
462.19	10.866
462.53	10.903
462.88	10.889
463.22	10.899
463.57	10.957
463.91	10.949
464.26	10.975
464.61	10.979
464.95	11.015
465.30	11.056
465.64	11.086
465.99	11.081
466.33	11.098
466.68	11.116
467.02	11.114
467.37	11.111
467.71	11.139
468.06	11.150
468.41	11.156
468.75	11.127
469.10	11.109
469.44	11.110
469.79	11.102
470.13	11.080
470.48	11.088
470.82	11.112
471.17	11.090
471.51	11.108
471.86	11.120
472.20	11.126
472.55	11.138
472.89	11.151
473.23	11.137
473.58	11.148
473.92	11.157
474.27	11.148
474.61	11.142
474.96	11.145
475.30	11.135
475.65	11.114
475.99	11.117
476.34	11.133
476.68	11.129
477.02	11.144
477.37	11.163
477.71	11.179
478.06	11.192
478.40	11.229
478.75	11.270
479.09	11.343
479.43	11.410
479.78	11.499
480.12	11.585
480.47	11.662
480.81	11.719
481.15	11.782
481.50	11.837
481.84	11.909
482.19	11.972
482.53	12.022
482.87	12.056
483.22	12.085
483.56	12.095
483.90	12.084
484.25	12.085
484.59	12.066
484.94	12.047
485.28	12.034
485.62	11.998
485.97	11.952
486.31	11.927
486.65	11.897
487.00	11.883
487.34	11.871
487.68	11.876
488.03	11.875
488.37	11.905
488.71	11.900
489.06	11.898
489.40	11.913
489.74	11.931
490.09	11.932
490.43	11.949
490.77	11.950
491.11	11.964
491.46	11.960
491.80	11.952
492.14	11.947
492.49	11.982
492.83	11.986
493.17	11.989
493.51	12.010
493.86	12.028
494.20	12.030
494.54	12.053
494.88	12.074
495.23	12.120
495.57	12.162
495.91	12.182
496.25	12.207
496.60	12.226
496.94	12.256
497.28	12.281
497.62	12.298
497.97	12.344
498.31	12.378
498.65	12.413
498.99	12.450
499.33	12.481
499.68	12.537
500.02	12.581
500.36	12.648
500.70	12.698
501.04	12.732
501.39	12.816
501.73	12.857
502.07	12.894
502.41	12.922
502.75	12.944
503.09	12.979
503.44	13.012
503.78	13.077
504.12	13.133
504.46	13.175
504.80	13.244
505.14	13.292
505.49	13.344
505.83	13.406
506.17	13.479
506.51	13.536
506.85	13.606
507.19	13.665
507.53	13.682
507.87	13.723
508.22	13.763
508.56	13.790
508.90	13.807
509.24	13.847
509.58	13.867
509.92	13.918
510.26	13.969
510.60	13.992
510.94	14.018
511.28	14.054
511.63	14.048
511.97	14.080
512.31	14.080
512.65	14.106
512.99	14.137
513.33	14.200
513.67	14.203
514.01	14.245
514.35	14.292
514.69	14.360
515.03	14.385
515.37	14.463
515.71	14.538
516.05	14.599
516.39	14.658
516.73	14.685
517.07	14.699
517.41	14.724
517.75	14.723
518.09	14.743
518.43	14.723
518.77	14.739
519.11	14.756
519.45	14.760
519.79	14.769
520.13	14.764
520.47	14.788
520.81	14.807
521.15	14.842
521.49	14.889
521.83	14.907
522.17	14.970
522.51	15.041
522.85	15.071
523.19	15.101
523.53	15.189
523.87	15.305
524.21	15.399
524.55	15.521
524.89	15.626
525.23	15.699
525.57	15.783
525.91	15.851
526.25	15.910
526.58	15.983
526.92	16.047
527.26	16.097
527.60	16.121
527.94	16.135
528.28	16.121
528.62	16.100
528.96	16.090
529.30	16.074
529.64	16.065
529.97	16.046
530.31	16.023
530.65	15.996
530.99	15.974
531.33	15.955
531.67	15.955
532.01	15.964
532.35	15.972
532.68	15.990
533.02	16.007
533.36	15.993
533.70	16.015
534.04	16.007
534.38	16.011
534.71	15.992
535.05	15.990
535.39	16.002
535.73	15.977
536.07	15.972
536.41	15.996
536.74	16.024
537.08	16.084
537.42	16.108
537.76	16.152
538.10	16.203
538.43	16.265
538.77	16.331
539.11	16.369
539.45	16.439
539.79	16.497
540.12	16.520
540.46	16.534
540.80	16.542
541.14	16.542
541.47	16.573
541.81	16.574
542.15	16.559
542.49	16.555
542.82	16.546
543.16	16.536
543.50	16.510
543.84	16.527
544.17	16.528
544.51	16.524
544.85	16.547
545.18	16.524
545.52	16.534
545.86	16.541
546.20	16.537
546.53	16.534
546.87	16.552
547.21	16.563
547.54	16.562
547.88	16.575
548.22	16.590
548.55	16.595
548.89	16.616
549.23	16.615
549.56	16.695
549.90	16.697
550.24	16.741
550.57	16.736
550.91	16.792
551.25	16.805
551.58	16.848
551.92	16.908
552.26	16.942
552.59	16.937
552.93	16.973
553.27	16.955
553.60	16.955
553.94	16.958
554.27	16.995
554.61	16.995
554.95	17.022
555.28	17.036
555.62	17.023
555.95	17.024
556.29	17.042
556.63	17.063
556.96	17.080
557.30	17.135
557.63	17.166
557.97	17.158
558.31	17.197
558.64	17.224
558.98	17.248
559.31	17.290
559.65	17.322
559.98	17.402
560.32	17.406
560.65	17.446
560.99	17.475
561.33	17.495
561.66	17.571
562.00	17.608
562.33	17.647
562.67	17.648
563.00	17.667
563.34	17.685
563.67	17.690
564.01	17.744
564.34	17.757
564.68	17.799
565.01	17.851
565.35	17.868
565.68	17.874
566.02	17.883
566.35	17.906
566.69	17.928
567.02	17.963
567.36	17.978
567.69	17.990
568.03	18.036
568.36	18.062
568.69	18.071
569.03	18.088
569.36	18.118
569.70	18.160
570.03	18.215
570.37	18.255
570.70	18.282
571.04	18.322
571.37	18.371
571.70	18.371
572.04	18.383
572.37	18.379
572.71	18.414
573.04	18.426
573.37	18.397
573.71	18.371
574.04	18.385
574.38	18.417
574.71	18.427
575.04	18.414
575.38	18.418
575.71	18.411
576.05	18.436
576.38	18.424
576.71	18.404
577.05	18.461
577.38	18.474
577.71	18.471
578.05	18.449
578.38	18.451
578.71	18.440
579.05	18.448
579.38	18.490
579.71	18.490
580.05	18.511
580.38	18.561
580.71	18.566
581.05	18.619
581.38	18.646
581.71	18.675
582.05	18.698
582.38	18.750
582.71	18.803
583.04	18.790
583.38	18.852
583.71	18.872
584.04	18.923
584.38	18.934
584.71	18.943
585.04	19.007
585.37	19.064
585.71	19.120
586.04	19.157
586.37	19.205
586.70	19.282
587.04	19.316
587.37	19.336
587.70	19.344
588.03	19.362
588.37	19.453
588.70	19.419
589.03	19.438
589.36	19.441
589.69	19.410
590.03	19.428
590.36	19.437
590.69	19.441
591.02	19.439
591.35	19.476
591.69	19.485
592.02	19.461
592.35	19.473
592.68	19.465
593.01	19.460
593.35	19.514
593.68	19.517
594.01	19.525
594.34	19.545
594.67	19.593
595.00	19.584
595.34	19.635
595.67	19.642
596.00	19.652
596.33	19.673
596.66	19.700
596.99	19.713
597.32	19.733
597.65	19.734
597.99	19.748
598.32	19.768
598.65	19.767
598.98	19.781
599.31	19.810
599.64	19.844
599.97	19.894
600.30	19.931
600.63	19.956
600.96	19.958
601.30	19.991
601.63	20.012
601.96	20.049
602.29	20.142
602.62	20.125
602.95	20.121
603.28	20.157
603.61	20.170
603.94	20.193
604.27	20.204
604.60	20.242
604.93	20.260
605.26	20.262
605.59	20.250
605.92	20.209
606.25	20.239
606.58	20.270
606.91	20.281
607.24	20.295
607.57	20.290
607.90	20.320
608.23	20.317
608.56	20.327
608.89	20.377
609.22	20.404
609.55	20.439
609.88	20.462
610.21	20.447
610.54	20.436
610.87	20.410
611.20	20.426
611.53	20.410
611.86	20.374
612.19	20.321
612.52	20.283
612.85	20.262
613.18	20.236
613.51	20.243
613.84	20.273
614.17	20.312
614.49	20.334
614.82	20.337
615.15	20.392
615.48	20.447
615.81	20.505
616.14	20.554
616.47	20.568
616.80	20.600
617.13	20.635
617.46	20.669
617.78	20.661
618.11	20.673
618.44	20.629
618.77	20.593
619.10	20.583
619.43	20.642
619.76	20.589
620.09	20.587
620.41	20.599
620.74	20.600
621.07	20.573
621.40	20.581
621.73	20.547
622.06	20.590
622.38	20.640
622.71	20.718
623.04	20.733
623.37	20.780
623.70	20.807
624.02	20.833
624.35	20.816
624.68	20.893
625.01	20.900
625.34	20.949
625.66	21.037
625.99	21.041
626.32	21.006
626.65	20.970
626.98	20.970
627.30	20.995
627.63	20.971
627.96	21.028
628.29	20.980
628.61	20.986
628.94	20.997
629.27	20.947
629.60	20.930
629.92	20.986
630.25	21.005
630.58	21.033
630.91	21.070
631.23	21.086
631.56	21.072
631.89	21.106
632.21	21.119
632.54	21.087
632.87	21.087
633.19	21.130
633.52	21.086
633.85	21.091
634.18	21.012
634.50	20.973
634.83	20.961
635.16	20.898
635.48	20.855
635.81	20.822
636.14	20.850
636.46	20.925
636.79	20.931
637.11	20.914
637.44	20.875
637.77	20.916
638.09	20.887
638.42	20.930
638.75	21.017
639.07	21.014
639.40	21.065
639.73	21.056
640.05	20.992
640.38	20.953
640.70	20.965
641.03	20.957
641.36	20.976
641.68	21.012
642.01	20.969
642.33	20.893
642.66	20.897
642.98	20.905
643.31	20.910
643.64	20.850
643.96	20.837
644.29	20.850
644.61	20.867
644.94	20.867
645.26	20.862
645.59	20.914
