OOIBase32 Version 2.0.0.6 Data File
++++++++++++++++++++++++++++++++++++
Date: 01-18-2012, 22:57:55
User: Valued Ocean Optics Customer
Spectrometer Serial Number: USB2E2917
Spectrometer Channel: Master
Integration Time (msec): 5
Spectra Averaged: 10
Boxcar Smoothing: 5
Correct for Electrical Dark: Enabled
Time Normalized: Disabled
Dual-beam Reference: Disabled
Reference Channel: Master
Temperature: Not acquired
Spectrometer Type: S2000
ADC Type: USB2000
Number of Pixels in File: 2048
Graph Title: 
>>>>>Begin Spectral Data<<<<<
180.30	0.000
180.67	0.000
181.03	507.461
181.40	77.235
181.77	98.795
182.14	-439.771
182.51	-6.829
182.88	83.314
183.25	200.157
183.62	-1.230
183.99	32.740
184.36	-144.415
184.73	147.787
185.10	281.627
185.46	-99.546
185.83	77.652
186.20	264.722
186.57	-33.075
186.94	-37.093
187.31	127.385
187.68	-54.062
188.05	89.887
188.42	100.439
188.78	90.948
189.15	104.096
189.52	95.884
189.89	86.951
190.26	75.955
190.63	61.646
191.00	63.275
191.37	76.156
191.73	64.905
192.10	57.519
192.47	43.762
192.84	62.107
193.21	35.385
193.58	38.829
193.94	25.806
194.31	30.009
194.68	47.798
195.05	38.887
195.42	27.482
195.79	47.620
196.15	34.783
196.52	50.061
196.89	48.733
197.26	64.318
197.63	61.077
198.00	51.431
198.36	46.923
198.73	43.505
199.10	29.732
199.47	28.147
199.84	9.981
200.20	24.671
200.57	10.961
200.94	6.506
201.31	18.462
201.68	25.389
202.04	30.089
202.41	24.715
202.78	27.794
203.15	33.775
203.51	38.378
203.88	46.336
204.25	42.167
204.62	40.357
204.98	39.447
205.35	33.349
205.72	29.322
206.09	30.071
206.46	29.768
206.82	27.775
207.19	25.904
207.56	10.973
207.92	7.261
208.29	4.680
208.66	7.506
209.03	1.350
209.39	-10.182
209.76	-0.108
210.13	-10.739
210.50	-2.486
210.86	-17.527
211.23	18.812
211.60	34.375
211.96	38.962
212.33	47.744
212.70	48.210
213.07	58.470
213.43	66.232
213.80	71.712
214.17	72.992
214.53	70.782
214.90	73.846
215.27	53.031
215.63	46.980
216.00	41.563
216.37	30.308
216.74	22.775
217.10	10.412
217.47	-9.183
217.84	-21.818
218.20	-25.444
218.57	-32.378
218.94	-30.876
219.30	-29.766
219.67	-25.643
220.04	-23.961
220.40	-28.283
220.77	-36.697
221.13	-27.092
221.50	-24.092
221.87	-32.873
222.23	-31.246
222.60	-19.325
222.97	-15.534
223.33	-10.645
223.70	-9.770
224.07	-11.020
224.43	-4.857
224.80	-0.934
225.16	0.277
225.53	2.998
225.90	5.714
226.26	5.428
226.63	3.469
226.99	4.585
227.36	4.442
227.73	5.264
228.09	6.174
228.46	6.310
228.82	7.564
229.19	5.982
229.56	5.459
229.92	7.068
230.29	9.280
230.65	9.167
231.02	10.214
231.38	8.743
231.75	7.925
232.12	8.501
232.48	7.903
232.85	7.173
233.21	9.346
233.58	8.006
233.94	7.918
234.31	5.759
234.68	6.577
235.04	2.499
235.41	3.816
235.77	5.651
236.14	3.989
236.50	3.948
236.87	2.098
237.23	1.721
237.60	2.858
237.96	0.429
238.33	1.059
238.69	2.685
239.06	3.335
239.42	3.260
239.79	2.155
240.15	2.257
240.52	2.898
240.88	3.577
241.25	4.113
241.61	4.011
241.98	4.832
242.34	4.584
242.71	3.501
243.07	3.034
243.44	3.391
243.80	3.556
244.17	3.470
244.53	3.419
244.90	3.383
245.26	3.072
245.63	3.247
245.99	2.977
246.36	3.007
246.72	3.211
247.09	3.884
247.45	3.207
247.81	3.202
248.18	3.476
248.54	3.437
248.91	3.441
249.27	3.312
249.64	2.867
250.00	2.759
250.36	3.024
250.73	2.870
251.09	2.067
251.46	2.944
251.82	2.924
252.19	2.426
252.55	2.048
252.91	2.060
253.28	2.181
253.64	2.681
254.01	3.363
254.37	3.580
254.73	3.141
255.10	3.423
255.46	2.985
255.83	3.032
256.19	3.079
256.55	3.016
256.92	2.744
257.28	2.903
257.65	2.861
258.01	2.616
258.37	2.470
258.74	2.985
259.10	3.055
259.46	3.120
259.83	2.952
260.19	3.261
260.55	3.553
260.92	3.655
261.28	3.440
261.64	3.222
262.01	3.424
262.37	3.399
262.73	2.995
263.10	3.365
263.46	3.117
263.82	3.192
264.19	2.971
264.55	2.671
264.91	2.502
265.28	2.328
265.64	2.559
266.00	2.520
266.37	2.166
266.73	2.180
267.09	1.717
267.46	1.631
267.82	1.678
268.18	1.406
268.54	1.326
268.91	1.766
269.27	1.738
269.63	1.727
270.00	1.595
270.36	1.852
270.72	1.936
271.08	1.975
271.45	1.920
271.81	2.113
272.17	2.266
272.53	2.290
272.90	2.063
273.26	2.210
273.62	2.060
273.98	2.392
274.35	2.543
274.71	2.319
275.07	1.956
275.43	1.901
275.80	1.894
276.16	2.192
276.52	2.452
276.88	2.358
277.25	2.344
277.61	2.473
277.97	2.221
278.33	2.112
278.69	2.069
279.06	2.713
279.42	2.905
279.78	2.983
280.14	2.992
280.50	3.013
280.87	3.150
281.23	3.125
281.59	3.155
281.95	3.053
282.31	3.018
282.68	3.157
283.04	2.952
283.40	3.058
283.76	3.074
284.12	2.882
284.48	2.591
284.85	2.420
285.21	2.462
285.57	2.503
285.93	2.639
286.29	2.644
286.65	2.429
287.02	2.492
287.38	2.629
287.74	2.776
288.10	2.757
288.46	2.719
288.82	2.715
289.18	2.845
289.54	2.908
289.91	2.988
290.27	3.288
290.63	3.654
290.99	3.622
291.35	3.722
291.71	3.856
292.07	4.266
292.43	4.585
292.79	5.095
293.16	5.016
293.52	5.272
293.88	5.158
294.24	5.075
294.60	5.194
294.96	5.551
295.32	5.577
295.68	5.478
296.04	5.657
296.40	5.914
296.76	6.048
297.12	6.377
297.49	6.347
297.85	6.754
298.21	7.147
298.57	7.571
298.93	7.681
299.29	8.106
299.65	8.532
300.01	8.827
300.37	9.154
300.73	9.542
301.09	10.076
301.45	10.693
301.81	11.080
302.17	11.454
302.53	11.707
302.89	12.094
303.25	12.356
303.61	12.676
303.97	12.768
304.33	13.141
304.69	13.302
305.05	13.300
305.41	13.477
305.77	13.605
306.13	13.616
306.49	13.889
306.85	14.002
307.21	14.098
307.57	14.142
307.93	14.314
308.29	14.305
308.65	14.310
309.01	14.375
309.37	14.390
309.73	14.439
310.09	14.668
310.45	14.703
310.81	14.966
311.17	15.040
311.53	15.268
311.89	15.393
312.25	15.405
312.61	15.434
312.96	15.610
313.32	15.710
313.68	15.703
314.04	15.509
314.40	15.531
314.76	15.412
315.12	15.384
315.48	15.341
315.84	15.211
316.20	15.143
316.56	15.170
316.92	15.184
317.27	15.232
317.63	15.358
317.99	15.693
318.35	15.640
318.71	15.594
319.07	15.645
319.43	15.542
319.79	15.585
320.15	15.692
320.50	15.762
320.86	15.620
321.22	15.698
321.58	15.617
321.94	15.629
322.30	15.693
322.66	15.721
323.01	15.641
323.37	15.733
323.73	15.885
324.09	15.820
324.45	15.777
324.81	15.991
325.17	15.812
325.52	15.777
325.88	15.653
326.24	15.435
326.60	15.378
326.96	15.401
327.31	15.401
327.67	15.197
328.03	15.250
328.39	15.484
328.75	15.423
329.11	15.564
329.46	15.732
329.82	15.608
330.18	15.847
330.54	15.928
330.90	16.111
331.25	16.111
331.61	16.091
331.97	16.024
332.33	15.777
332.68	15.633
333.04	15.516
333.40	15.460
333.76	15.476
334.11	15.357
334.47	15.225
334.83	15.082
335.19	15.057
335.54	15.103
335.90	15.074
336.26	15.031
336.62	14.959
336.97	14.892
337.33	14.769
337.69	14.836
338.05	14.773
338.40	14.819
338.76	14.629
339.12	14.592
339.48	14.460
339.83	14.533
340.19	14.689
340.55	14.792
340.90	14.765
341.26	14.808
341.62	14.681
341.97	14.719
342.33	14.598
342.69	14.608
343.04	14.648
343.40	14.674
343.76	14.675
344.12	14.685
344.47	14.592
344.83	14.605
345.19	14.623
345.54	14.631
345.90	14.525
346.26	14.597
346.61	14.648
346.97	14.458
347.32	14.468
347.68	14.321
348.04	14.182
348.39	14.283
348.75	14.196
349.11	14.090
349.46	14.011
349.82	13.987
350.18	14.029
350.53	14.025
350.89	14.108
351.24	14.177
351.60	14.224
351.96	14.204
352.31	14.114
352.67	14.116
353.02	14.161
353.38	14.222
353.74	14.231
354.09	14.061
354.45	14.177
354.80	14.120
355.16	14.072
355.52	14.098
355.87	14.032
356.23	14.021
356.58	13.970
356.94	13.928
357.29	13.905
357.65	13.879
358.00	13.878
358.36	13.637
358.72	13.645
359.07	13.531
359.43	13.510
359.78	13.350
360.14	13.299
360.49	13.342
360.85	13.343
361.20	13.326
361.56	13.328
361.91	13.345
362.27	13.341
362.62	13.286
362.98	13.362
363.33	13.357
363.69	13.429
364.04	13.361
364.40	13.376
364.75	13.300
365.11	13.199
365.46	13.105
365.82	13.151
366.17	13.214
366.53	13.200
366.88	13.136
367.24	13.083
367.59	13.110
367.95	13.130
368.30	13.130
368.66	13.147
369.01	13.200
369.37	13.192
369.72	13.086
370.08	12.996
370.43	12.952
370.78	12.989
371.14	12.982
371.49	12.991
371.85	13.002
372.20	12.872
372.56	12.823
372.91	12.861
373.26	12.896
373.62	12.836
373.97	12.833
374.33	12.735
374.68	12.626
375.03	12.468
375.39	12.393
375.74	12.290
376.10	12.250
376.45	12.214
376.80	12.144
377.16	12.097
377.51	12.021
377.87	11.985
378.22	12.049
378.57	12.050
378.93	12.140
379.28	12.139
379.63	12.189
379.99	12.220
380.34	12.151
380.70	12.083
381.05	12.023
381.40	12.059
381.76	12.129
382.11	12.117
382.46	12.103
382.82	12.096
383.17	12.078
383.52	12.061
383.88	12.101
384.23	12.170
384.58	12.110
384.94	12.047
385.29	11.992
385.64	11.874
385.99	11.782
386.35	11.717
386.70	11.675
387.05	11.591
387.41	11.565
387.76	11.464
388.11	11.360
388.47	11.368
388.82	11.390
389.17	11.435
389.52	11.417
389.88	11.459
390.23	11.416
390.58	11.389
390.93	11.388
391.29	11.345
391.64	11.277
391.99	11.303
392.34	11.241
392.70	11.268
393.05	11.235
393.40	11.229
393.75	11.090
394.11	11.087
394.46	11.070
394.81	11.059
395.16	10.956
395.52	10.905
395.87	10.790
396.22	10.777
396.57	10.659
396.92	10.557
397.28	10.510
397.63	10.517
397.98	10.454
398.33	10.366
398.68	10.233
399.04	10.251
399.39	10.234
399.74	10.182
400.09	10.155
400.44	10.090
400.80	10.117
401.15	10.079
401.50	10.016
401.85	10.005
402.20	9.991
402.55	10.003
402.90	9.942
403.26	9.915
403.61	9.939
403.96	9.837
404.31	9.839
404.66	9.766
405.01	9.747
405.36	9.749
405.72	9.708
406.07	9.681
406.42	9.650
406.77	9.638
407.12	9.647
407.47	9.623
407.82	9.690
408.17	9.693
408.53	9.691
408.88	9.624
409.23	9.579
409.58	9.538
409.93	9.442
410.28	9.454
410.63	9.453
410.98	9.419
411.33	9.382
411.68	9.336
412.03	9.280
412.38	9.227
412.73	9.247
413.09	9.249
413.44	9.251
413.79	9.273
414.14	9.228
414.49	9.199
414.84	9.165
415.19	9.159
415.54	9.126
415.89	9.119
416.24	9.119
416.59	9.116
416.94	9.081
417.29	9.089
417.64	9.085
417.99	9.091
418.34	9.087
418.69	9.075
419.04	9.051
419.39	9.081
419.74	9.069
420.09	9.048
420.44	9.036
420.79	9.043
421.14	9.000
421.49	8.993
421.84	8.969
422.19	8.957
422.54	8.968
422.89	8.992
423.24	8.960
423.59	8.964
423.94	8.999
424.29	8.996
424.64	9.000
424.99	9.029
425.34	9.034
425.68	9.049
426.03	9.036
426.38	8.998
426.73	8.962
427.08	8.962
427.43	8.948
427.78	8.905
428.13	8.879
428.48	8.909
428.83	8.909
429.18	8.930
429.53	8.939
429.87	8.945
430.22	8.961
430.57	8.985
430.92	9.000
431.27	9.006
431.62	9.016
431.97	9.034
432.32	9.008
432.67	8.992
433.01	8.948
433.36	8.921
433.71	8.931
434.06	8.927
434.41	8.907
434.76	8.871
435.11	8.887
435.45	8.897
435.80	8.875
436.15	8.875
436.50	8.909
436.85	8.904
437.20	8.926
437.54	8.916
437.89	8.922
438.24	8.952
438.59	8.981
438.94	8.997
439.29	8.978
439.63	8.984
439.98	8.979
440.33	8.946
440.68	8.951
441.03	8.948
441.37	8.944
441.72	8.962
442.07	8.943
442.42	8.944
442.76	8.936
443.11	8.933
443.46	8.913
443.81	8.921
444.16	8.915
444.50	8.915
444.85	8.900
445.20	8.926
445.55	8.887
445.89	8.896
446.24	8.878
446.59	8.852
446.94	8.845
447.28	8.853
447.63	8.817
447.98	8.818
448.32	8.808
448.67	8.800
449.02	8.744
449.37	8.777
449.71	8.737
450.06	8.723
450.41	8.696
450.75	8.711
451.10	8.710
451.45	8.719
451.79	8.703
452.14	8.682
452.49	8.683
452.84	8.697
453.18	8.658
453.53	8.640
453.88	8.625
454.22	8.635
454.57	8.621
454.92	8.614
455.26	8.609
455.61	8.611
455.95	8.635
456.30	8.645
456.65	8.627
456.99	8.620
457.34	8.650
457.69	8.624
458.03	8.612
458.38	8.598
458.73	8.577
459.07	8.584
459.42	8.578
459.76	8.559
460.11	8.543
460.46	8.538
460.80	8.515
461.15	8.462
461.49	8.469
461.84	8.473
462.19	8.452
462.53	8.436
462.88	8.380
463.22	8.349
463.57	8.334
463.91	8.306
464.26	8.302
464.61	8.313
464.95	8.338
465.30	8.355
465.64	8.349
465.99	8.346
466.33	8.349
466.68	8.341
467.02	8.356
467.37	8.340
467.71	8.327
468.06	8.311
468.41	8.290
468.75	8.250
469.10	8.195
469.44	8.151
469.79	8.132
470.13	8.118
470.48	8.128
470.82	8.108
471.17	8.085
471.51	8.070
471.86	8.028
472.20	8.006
472.55	7.990
472.89	7.996
473.23	7.997
473.58	7.995
473.92	7.976
474.27	7.950
474.61	7.911
474.96	7.918
475.30	7.906
475.65	7.910
475.99	7.897
476.34	7.853
476.68	7.836
477.02	7.830
477.37	7.817
477.71	7.822
478.06	7.809
478.40	7.839
478.75	7.859
479.09	7.887
479.43	7.928
479.78	7.991
480.12	8.085
480.47	8.137
480.81	8.187
481.15	8.225
481.50	8.268
481.84	8.305
482.19	8.339
482.53	8.361
482.87	8.379
483.22	8.397
483.56	8.388
483.90	8.351
484.25	8.326
484.59	8.293
484.94	8.262
485.28	8.216
485.62	8.173
485.97	8.106
486.31	8.065
486.65	8.022
487.00	7.974
487.34	7.939
487.68	7.913
488.03	7.902
488.37	7.877
488.71	7.846
489.06	7.813
489.40	7.802
489.74	7.798
490.09	7.758
490.43	7.735
490.77	7.684
491.11	7.651
491.46	7.623
491.80	7.559
492.14	7.504
492.49	7.471
492.83	7.428
493.17	7.363
493.51	7.323
493.86	7.276
494.20	7.228
494.54	7.225
494.88	7.210
495.23	7.173
495.57	7.169
495.91	7.179
496.25	7.173
496.60	7.163
496.94	7.149
497.28	7.147
497.62	7.143
497.97	7.123
498.31	7.101
498.65	7.072
498.99	7.077
499.33	7.060
499.68	7.041
500.02	7.030
500.36	7.030
500.70	7.027
501.04	6.975
501.39	6.981
501.73	6.978
502.07	6.980
502.41	6.981
502.75	6.966
503.09	6.954
503.44	6.938
503.78	6.929
504.12	6.917
504.46	6.923
504.80	6.931
505.14	6.928
505.49	6.899
505.83	6.874
506.17	6.882
506.51	6.882
506.85	6.884
507.19	6.887
507.53	6.886
507.87	6.905
508.22	6.890
508.56	6.889
508.90	6.856
509.24	6.877
509.58	6.861
509.92	6.835
510.26	6.821
510.60	6.808
510.94	6.800
511.28	6.770
511.63	6.742
511.97	6.740
512.31	6.705
512.65	6.692
512.99	6.667
513.33	6.674
513.67	6.672
514.01	6.675
514.35	6.670
514.69	6.676
515.03	6.684
515.37	6.690
515.71	6.702
516.05	6.717
516.39	6.718
516.73	6.733
517.07	6.735
517.41	6.738
517.75	6.732
518.09	6.719
518.43	6.692
518.77	6.665
519.11	6.630
519.45	6.607
519.79	6.593
520.13	6.566
520.47	6.518
520.81	6.495
521.15	6.487
521.49	6.471
521.83	6.453
522.17	6.449
522.51	6.455
522.85	6.478
523.19	6.490
523.53	6.526
523.87	6.581
524.21	6.651
524.55	6.695
524.89	6.738
525.23	6.777
525.57	6.831
525.91	6.877
526.25	6.913
526.58	6.929
526.92	6.941
527.26	6.955
527.60	6.959
527.94	6.940
528.28	6.930
528.62	6.898
528.96	6.864
529.30	6.835
529.64	6.793
529.97	6.760
530.31	6.734
530.65	6.711
530.99	6.675
531.33	6.647
531.67	6.627
532.01	6.586
532.35	6.567
532.68	6.568
533.02	6.539
533.36	6.521
533.70	6.492
534.04	6.452
534.38	6.398
534.71	6.359
535.05	6.324
535.39	6.275
535.73	6.247
536.07	6.215
536.41	6.199
536.74	6.204
537.08	6.196
537.42	6.199
537.76	6.218
538.10	6.244
538.43	6.270
538.77	6.303
539.11	6.335
539.45	6.373
539.79	6.397
540.12	6.395
540.46	6.397
540.80	6.409
541.14	6.411
541.47	6.403
541.81	6.389
542.15	6.349
542.49	6.323
542.82	6.289
543.16	6.257
543.50	6.216
543.84	6.183
544.17	6.155
544.51	6.106
544.85	6.070
545.18	6.048
545.52	6.018
545.86	6.005
546.20	5.970
546.53	5.948
546.87	5.910
547.21	5.886
547.54	5.871
547.88	5.838
548.22	5.801
548.55	5.757
548.89	5.739
549.23	5.726
549.56	5.734
549.90	5.721
550.24	5.730
550.57	5.727
550.91	5.732
551.25	5.712
551.58	5.730
551.92	5.769
552.26	5.798
552.59	5.778
552.93	5.800
553.27	5.775
553.60	5.759
553.94	5.729
554.27	5.691
554.61	5.671
554.95	5.666
555.28	5.624
555.62	5.573
555.95	5.548
556.29	5.541
556.63	5.513
556.96	5.531
557.30	5.535
557.63	5.554
557.97	5.549
558.31	5.548
558.64	5.548
558.98	5.541
559.31	5.564
559.65	5.554
559.98	5.556
560.32	5.571
560.65	5.554
560.99	5.525
561.33	5.517
561.66	5.538
562.00	5.523
562.33	5.548
562.67	5.546
563.00	5.541
563.34	5.546
563.67	5.574
564.01	5.580
564.34	5.573
564.68	5.616
565.01	5.635
565.35	5.646
565.68	5.656
566.02	5.635
566.35	5.648
566.69	5.659
567.02	5.663
567.36	5.652
567.69	5.636
568.03	5.657
568.36	5.654
568.69	5.637
569.03	5.645
569.36	5.662
569.70	5.665
570.03	5.673
570.37	5.670
570.70	5.678
571.04	5.682
571.37	5.675
571.70	5.660
572.04	5.633
572.37	5.637
572.71	5.624
573.04	5.616
573.37	5.590
573.71	5.573
574.04	5.572
574.38	5.548
574.71	5.519
575.04	5.494
575.38	5.489
575.71	5.483
576.05	5.459
576.38	5.425
576.71	5.394
577.05	5.373
577.38	5.340
577.71	5.300
578.05	5.287
578.38	5.270
578.71	5.278
579.05	5.272
579.38	5.249
579.71	5.213
580.05	5.193
580.38	5.170
580.71	5.180
581.05	5.184
581.38	5.190
581.71	5.184
582.05	5.181
582.38	5.179
582.71	5.156
583.04	5.160
583.38	5.181
583.71	5.228
584.04	5.286
584.38	5.304
584.71	5.338
585.04	5.364
585.37	5.385
585.71	5.401
586.04	5.408
586.37	5.418
586.70	5.433
587.04	5.457
587.37	5.454
587.70	5.416
588.03	5.427
588.37	5.425
588.70	5.422
589.03	5.390
589.36	5.409
589.69	5.387
590.03	5.404
590.36	5.405
590.69	5.412
591.02	5.382
591.35	5.403
591.69	5.411
592.02	5.420
592.35	5.422
592.68	5.455
593.01	5.456
593.35	5.485
593.68	5.484
594.01	5.520
594.34	5.517
594.67	5.548
595.00	5.565
595.34	5.545
595.67	5.502
596.00	5.510
596.33	5.494
596.66	5.475
596.99	5.448
597.32	5.416
597.65	5.406
597.99	5.403
598.32	5.370
598.65	5.349
598.98	5.335
599.31	5.370
599.64	5.354
599.97	5.371
600.30	5.392
600.63	5.420
600.96	5.430
601.30	5.425
601.63	5.423
601.96	5.441
602.29	5.454
602.62	5.483
602.95	5.487
603.28	5.495
603.61	5.513
603.94	5.534
604.27	5.538
604.60	5.540
604.93	5.539
605.26	5.534
605.59	5.536
605.92	5.550
606.25	5.517
606.58	5.498
606.91	5.470
607.24	5.457
607.57	5.417
607.90	5.447
608.23	5.456
608.56	5.435
608.89	5.443
609.22	5.440
609.55	5.425
609.88	5.479
610.21	5.472
610.54	5.486
610.87	5.466
611.20	5.463
611.53	5.391
611.86	5.368
612.19	5.356
612.52	5.345
612.85	5.317
613.18	5.274
613.51	5.257
613.84	5.268
614.17	5.250
614.49	5.270
614.82	5.259
615.15	5.279
615.48	5.332
615.81	5.339
616.14	5.356
616.47	5.383
616.80	5.412
617.13	5.396
617.46	5.403
617.78	5.431
618.11	5.412
618.44	5.416
618.77	5.371
619.10	5.316
619.43	5.307
619.76	5.267
620.09	5.218
620.41	5.179
620.74	5.194
621.07	5.166
621.40	5.172
621.73	5.209
622.06	5.233
622.38	5.284
622.71	5.327
623.04	5.358
623.37	5.398
623.70	5.450
624.02	5.461
624.35	5.442
624.68	5.507
625.01	5.509
625.34	5.537
625.66	5.552
625.99	5.572
626.32	5.574
626.65	5.577
626.98	5.547
627.30	5.573
627.63	5.607
627.96	5.627
628.29	5.588
628.61	5.602
628.94	5.546
629.27	5.505
629.60	5.472
629.92	5.402
630.25	5.392
630.58	5.408
630.91	5.393
631.23	5.365
631.56	5.371
631.89	5.358
632.21	5.346
632.54	5.319
632.87	5.351
633.19	5.377
633.52	5.398
633.85	5.363
634.18	5.333
634.50	5.308
634.83	5.258
635.16	5.210
635.48	5.180
635.81	5.114
636.14	5.152
636.46	5.127
636.79	5.055
637.11	5.091
637.44	5.082
637.77	5.079
638.09	5.035
638.42	5.092
638.75	5.116
639.07	5.132
639.40	5.168
639.73	5.169
640.05	5.124
640.38	5.138
640.70	5.072
641.03	5.089
641.36	5.109
641.68	5.129
642.01	5.118
642.33	5.099
642.66	5.069
642.98	5.077
643.31	5.045
643.64	5.025
643.96	5.052
644.29	5.075
644.61	5.070
644.94	5.062
645.26	5.095
645.59	5.045
645.91	5.067
646.24	5.093
646.56	5.087
646.89	5.080
647.22	5.131
647.54	5.112
647.87	5.115
648.19	5.122
648.52	5.085
648.84	5.058
649.17	5.053
649.49	4.988
649.82	4.957
650.14	4.983
650.47	5.009
650.79	5.020
651.11	5.042
651.44	5.069
651.76	5.046
652.09	5.059
652.41	5.042
652.74	5.075
653.06	5.073
653.39	5.077
