OOIBase32 Version 2.0.0.6 Data File
++++++++++++++++++++++++++++++++++++
Date: 01-18-2012, 22:56:03
User: Valued Ocean Optics Customer
Spectrometer Serial Number: USB2E2917
Spectrometer Channel: Master
Integration Time (msec): 5
Spectra Averaged: 10
Boxcar Smoothing: 5
Correct for Electrical Dark: Enabled
Time Normalized: Disabled
Dual-beam Reference: Disabled
Reference Channel: Master
Temperature: Not acquired
Spectrometer Type: S2000
ADC Type: USB2000
Number of Pixels in File: 2048
Graph Title: 
>>>>>Begin Spectral Data<<<<<
180.30	0.000
180.67	0.000
181.03	-1302.355
181.40	47.037
181.77	66.813
182.14	-273.397
182.51	7.874
182.88	-15.345
183.25	176.063
183.62	-99.707
183.99	66.434
184.36	186.318
184.73	172.840
185.10	353.722
185.46	-46.335
185.83	-83.100
186.20	74.698
186.57	-220.760
186.94	31.531
187.31	3.132
187.68	121.055
188.05	37.196
188.42	53.314
188.78	53.556
189.15	56.323
189.52	49.167
189.89	59.126
190.26	63.679
190.63	56.581
191.00	62.708
191.37	83.257
191.73	80.396
192.10	77.716
192.47	78.167
192.84	86.210
193.21	76.003
193.58	60.497
193.94	36.896
194.31	18.974
194.68	33.601
195.05	38.990
195.42	25.455
195.79	23.847
196.15	6.717
196.52	5.560
196.89	3.407
197.26	-6.711
197.63	-10.140
198.00	-24.019
198.36	-11.155
198.73	-6.601
199.10	-9.660
199.47	-2.989
199.84	-2.059
200.20	8.877
200.57	11.769
200.94	20.450
201.31	27.074
201.68	42.962
202.04	48.350
202.41	47.925
202.78	38.520
203.15	37.689
203.51	38.481
203.88	46.430
204.25	49.231
204.62	44.345
204.98	39.553
205.35	37.288
205.72	43.867
206.09	50.481
206.46	46.932
206.82	53.860
207.19	52.129
207.56	52.584
207.92	47.362
208.29	36.848
208.66	40.818
209.03	42.897
209.39	40.953
209.76	31.447
210.13	23.908
210.50	16.586
210.86	12.462
211.23	32.084
211.60	40.980
211.96	37.025
212.33	42.836
212.70	41.475
213.07	46.945
213.43	47.969
213.80	48.368
214.17	51.191
214.53	67.613
214.90	59.017
215.27	37.258
215.63	27.441
216.00	37.192
216.37	41.004
216.74	44.259
217.10	36.724
217.47	25.409
217.84	14.684
218.20	1.667
218.57	-11.343
218.94	-11.365
219.30	0.455
219.67	11.564
220.04	9.636
220.40	-3.729
220.77	-19.287
221.13	-19.962
221.50	-15.487
221.87	-14.633
222.23	-5.076
222.60	2.714
222.97	5.265
223.33	3.118
223.70	-0.292
224.07	-4.219
224.43	0.206
224.80	3.262
225.16	5.225
225.53	6.597
225.90	8.250
226.26	6.991
226.63	4.328
226.99	6.736
227.36	7.474
227.73	6.543
228.09	6.615
228.46	6.890
228.82	8.859
229.19	8.265
229.56	7.942
229.92	8.224
230.29	9.522
230.65	9.424
231.02	8.179
231.38	6.697
231.75	5.354
232.12	6.693
232.48	5.144
232.85	4.243
233.21	5.031
233.58	4.402
233.94	4.460
234.31	3.576
234.68	4.031
235.04	3.098
235.41	4.019
235.77	6.490
236.14	5.546
236.50	7.683
236.87	6.895
237.23	6.297
237.60	5.385
237.96	2.968
238.33	2.669
238.69	3.829
239.06	4.190
239.42	4.328
239.79	3.587
240.15	3.724
240.52	3.781
240.88	4.126
241.25	4.602
241.61	5.246
241.98	6.141
242.34	6.050
242.71	5.619
243.07	4.478
243.44	4.365
243.80	4.828
244.17	4.872
244.53	4.522
244.90	4.261
245.26	4.101
245.63	4.002
245.99	4.022
246.36	4.042
246.72	4.036
247.09	4.913
247.45	4.571
247.81	4.403
248.18	4.258
248.54	4.717
248.91	4.962
249.27	4.863
249.64	4.746
250.00	3.873
250.36	4.237
250.73	3.628
251.09	2.517
251.46	3.403
251.82	3.429
252.19	3.102
252.55	2.772
252.91	2.797
253.28	2.597
253.64	2.821
254.01	3.469
254.37	3.519
254.73	4.196
255.10	4.912
255.46	4.343
255.83	3.811
256.19	3.828
256.55	3.425
256.92	3.226
257.28	3.538
257.65	3.512
258.01	3.622
258.37	3.459
258.74	3.516
259.10	3.281
259.46	3.400
259.83	3.472
260.19	3.955
260.55	4.312
260.92	4.158
261.28	3.992
261.64	3.915
262.01	3.672
262.37	3.641
262.73	3.586
263.10	4.124
263.46	3.776
263.82	3.807
264.19	3.040
264.55	2.504
264.91	2.920
265.28	2.796
265.64	3.120
266.00	3.286
266.37	3.111
266.73	2.903
267.09	2.769
267.46	2.858
267.82	3.128
268.18	3.052
268.54	3.213
268.91	2.661
269.27	2.483
269.63	2.119
270.00	2.048
270.36	2.281
270.72	2.343
271.08	2.362
271.45	2.145
271.81	1.813
272.17	1.996
272.53	1.856
272.90	2.114
273.26	2.031
273.62	2.130
273.98	2.224
274.35	2.356
274.71	2.129
275.07	1.765
275.43	1.454
275.80	1.969
276.16	2.391
276.52	2.614
276.88	2.766
277.25	3.077
277.61	2.853
277.97	2.665
278.33	2.450
278.69	2.681
279.06	2.988
279.42	3.427
279.78	3.465
280.14	3.267
280.50	3.207
280.87	3.282
281.23	3.281
281.59	3.618
281.95	3.637
282.31	3.406
282.68	3.560
283.04	3.580
283.40	3.419
283.76	3.193
284.12	2.872
284.48	2.674
284.85	2.364
285.21	2.178
285.57	2.013
285.93	2.172
286.29	2.473
286.65	2.246
287.02	2.237
287.38	2.713
287.74	2.707
288.10	3.069
288.46	3.156
288.82	3.275
289.18	3.497
289.54	3.554
289.91	3.518
290.27	3.543
290.63	3.630
290.99	3.507
291.35	3.347
291.71	3.638
292.07	3.857
292.43	3.966
292.79	4.172
293.16	3.882
293.52	3.920
293.88	3.723
294.24	3.642
294.60	3.777
294.96	4.001
295.32	3.897
295.68	3.717
296.04	3.615
296.40	3.622
296.76	3.664
297.12	3.799
297.49	3.776
297.85	3.954
298.21	4.026
298.57	3.892
298.93	3.663
299.29	3.694
299.65	3.716
300.01	3.730
300.37	3.772
300.73	3.716
301.09	3.845
301.45	4.212
301.81	4.208
302.17	4.180
302.53	4.252
302.89	4.434
303.25	4.349
303.61	4.456
303.97	4.214
304.33	4.244
304.69	4.099
305.05	4.197
305.41	3.993
305.77	3.953
306.13	4.019
306.49	3.968
306.85	3.838
307.21	3.886
307.57	3.714
307.93	3.736
308.29	3.814
308.65	3.973
309.01	3.907
309.37	3.803
309.73	3.899
310.09	3.843
310.45	3.944
310.81	4.030
311.17	4.140
311.53	4.197
311.89	4.317
312.25	4.337
312.61	4.370
312.96	4.513
313.32	4.638
313.68	4.641
314.04	4.521
314.40	4.387
314.76	4.481
315.12	4.486
315.48	4.464
315.84	4.525
316.20	4.258
316.56	4.257
316.92	4.181
317.27	4.194
317.63	4.139
317.99	4.315
318.35	4.436
318.71	4.281
319.07	4.268
319.43	4.355
319.79	4.201
320.15	4.334
320.50	4.322
320.86	4.280
321.22	4.430
321.58	4.381
321.94	4.509
322.30	4.494
322.66	4.636
323.01	4.672
323.37	4.811
323.73	4.943
324.09	5.123
324.45	5.326
324.81	5.491
325.17	5.417
325.52	5.529
325.88	5.512
326.24	5.572
326.60	5.795
326.96	5.803
327.31	5.891
327.67	5.935
328.03	5.971
328.39	5.960
328.75	5.992
329.11	6.152
329.46	6.230
329.82	6.418
330.18	6.632
330.54	6.620
330.90	6.738
331.25	6.659
331.61	6.679
331.97	6.595
332.33	6.628
332.68	6.584
333.04	6.587
333.40	6.798
333.76	6.652
334.11	6.536
334.47	6.365
334.83	6.305
335.19	6.389
335.54	6.615
335.90	6.763
336.26	6.721
336.62	6.736
336.97	6.547
337.33	6.439
337.69	6.574
338.05	6.654
338.40	6.704
338.76	6.762
339.12	6.786
339.48	6.682
339.83	6.734
340.19	6.824
340.55	6.989
340.90	7.262
341.26	7.330
341.62	7.346
341.97	7.390
342.33	7.438
342.69	7.367
343.04	7.409
343.40	7.432
343.76	7.440
344.12	7.492
344.47	7.539
344.83	7.407
345.19	7.312
345.54	7.276
345.90	7.276
346.26	7.210
346.61	7.397
346.97	7.360
347.32	7.488
347.68	7.444
348.04	7.433
348.39	7.426
348.75	7.583
349.11	7.629
349.46	7.631
349.82	7.588
350.18	7.738
350.53	7.700
350.89	7.747
351.24	7.643
351.60	7.676
351.96	7.692
352.31	7.758
352.67	7.770
353.02	7.889
353.38	8.028
353.74	8.153
354.09	8.109
354.45	8.208
354.80	8.227
355.16	8.283
355.52	8.291
355.87	8.311
356.23	8.217
356.58	8.194
356.94	8.202
357.29	8.112
357.65	8.103
358.00	8.299
358.36	8.198
358.72	8.268
359.07	8.215
359.43	8.318
359.78	8.301
360.14	8.400
360.49	8.475
360.85	8.418
361.20	8.496
361.56	8.491
361.91	8.376
362.27	8.415
362.62	8.438
362.98	8.580
363.33	8.644
363.69	8.727
364.04	8.679
364.40	8.647
364.75	8.679
365.11	8.687
365.46	8.703
365.82	8.759
366.17	8.848
366.53	8.820
366.88	8.805
367.24	8.693
367.59	8.721
367.95	8.731
368.30	8.795
368.66	8.853
369.01	8.861
369.37	8.857
369.72	8.864
370.08	8.901
370.43	8.935
370.78	8.965
371.14	9.135
371.49	9.148
371.85	9.167
372.20	9.186
372.56	9.226
372.91	9.350
373.26	9.384
373.62	9.458
373.97	9.462
374.33	9.484
374.68	9.516
375.03	9.472
375.39	9.534
375.74	9.675
376.10	9.626
376.45	9.668
376.80	9.725
377.16	9.836
377.51	9.865
377.87	9.936
378.22	10.007
378.57	10.045
378.93	10.100
379.28	10.148
379.63	10.169
379.99	10.322
380.34	10.416
380.70	10.457
381.05	10.488
381.40	10.543
381.76	10.646
382.11	10.713
382.46	10.808
382.82	10.925
383.17	11.028
383.52	11.080
383.88	11.138
384.23	11.228
384.58	11.358
384.94	11.417
385.29	11.491
385.64	11.539
385.99	11.572
386.35	11.624
386.70	11.687
387.05	11.711
387.41	11.788
387.76	11.875
388.11	11.889
388.47	11.872
388.82	11.936
389.17	12.020
389.52	12.108
389.88	12.198
390.23	12.325
390.58	12.374
390.93	12.407
391.29	12.483
391.64	12.494
391.99	12.587
392.34	12.612
392.70	12.673
393.05	12.726
393.40	12.724
393.75	12.771
394.11	12.792
394.46	12.875
394.81	12.955
395.16	12.946
395.52	12.979
395.87	12.951
396.22	13.000
396.57	13.018
396.92	12.970
397.28	12.990
397.63	13.013
397.98	13.014
398.33	13.010
398.68	13.014
399.04	13.005
399.39	13.062
399.74	13.063
400.09	13.070
400.44	13.085
400.80	13.185
401.15	13.197
401.50	13.218
401.85	13.221
402.20	13.224
402.55	13.290
402.90	13.335
403.26	13.326
403.61	13.398
403.96	13.451
404.31	13.487
404.66	13.494
405.01	13.559
405.36	13.596
405.72	13.639
406.07	13.676
406.42	13.661
406.77	13.744
407.12	13.786
407.47	13.833
407.82	13.873
408.17	13.941
408.53	13.985
408.88	13.999
409.23	14.052
409.58	14.079
409.93	14.087
410.28	14.110
410.63	14.177
410.98	14.227
411.33	14.264
411.68	14.283
412.03	14.318
412.38	14.308
412.73	14.350
413.09	14.334
413.44	14.340
413.79	14.404
414.14	14.418
414.49	14.414
414.84	14.430
415.19	14.430
415.54	14.418
415.89	14.393
416.24	14.412
416.59	14.371
416.94	14.352
417.29	14.359
417.64	14.330
417.99	14.332
418.34	14.300
418.69	14.291
419.04	14.274
419.39	14.295
419.74	14.279
420.09	14.266
420.44	14.278
420.79	14.296
421.14	14.291
421.49	14.282
421.84	14.265
422.19	14.276
422.54	14.267
422.89	14.255
423.24	14.207
423.59	14.229
423.94	14.254
424.29	14.277
424.64	14.285
424.99	14.263
425.34	14.275
425.68	14.303
426.03	14.274
426.38	14.273
426.73	14.298
427.08	14.367
427.43	14.375
427.78	14.368
428.13	14.351
428.48	14.397
428.83	14.431
429.18	14.487
429.53	14.482
429.87	14.548
430.22	14.594
430.57	14.628
430.92	14.629
431.27	14.657
431.62	14.690
431.97	14.722
432.32	14.715
432.67	14.732
433.01	14.741
433.36	14.793
433.71	14.799
434.06	14.813
434.41	14.843
434.76	14.881
435.11	14.933
435.45	14.954
435.80	14.980
436.15	15.002
436.50	15.030
436.85	15.021
437.20	15.040
437.54	15.069
437.89	15.069
438.24	15.066
438.59	15.045
438.94	15.012
439.29	15.003
439.63	14.947
439.98	14.932
440.33	14.916
440.68	14.875
441.03	14.835
441.37	14.795
441.72	14.789
442.07	14.754
442.42	14.727
442.76	14.682
443.11	14.624
443.46	14.612
443.81	14.593
444.16	14.576
444.50	14.580
444.85	14.536
445.20	14.514
445.55	14.471
445.89	14.445
446.24	14.424
446.59	14.395
446.94	14.382
447.28	14.362
447.63	14.302
447.98	14.272
448.32	14.231
448.67	14.207
449.02	14.143
449.37	14.129
449.71	14.086
450.06	14.055
450.41	14.054
450.75	14.040
451.10	14.054
451.45	14.089
451.79	14.062
452.14	14.062
452.49	14.078
452.84	14.112
453.18	14.084
453.53	14.099
453.88	14.115
454.22	14.108
454.57	14.109
454.92	14.134
455.26	14.132
455.61	14.182
455.95	14.211
456.30	14.250
456.65	14.259
456.99	14.294
457.34	14.349
457.69	14.370
458.03	14.422
458.38	14.478
458.73	14.493
459.07	14.534
459.42	14.560
459.76	14.595
460.11	14.639
460.46	14.705
460.80	14.758
461.15	14.811
461.49	14.877
461.84	14.939
462.19	15.014
462.53	15.086
462.88	15.147
463.22	15.195
463.57	15.286
463.91	15.333
464.26	15.394
464.61	15.475
464.95	15.553
465.30	15.626
465.64	15.689
465.99	15.721
466.33	15.767
466.68	15.818
467.02	15.890
467.37	15.922
467.71	15.978
468.06	16.003
468.41	16.009
468.75	16.023
469.10	16.060
469.44	16.067
469.79	16.099
470.13	16.127
470.48	16.153
470.82	16.176
471.17	16.220
471.51	16.213
471.86	16.227
472.20	16.239
472.55	16.230
472.89	16.194
473.23	16.214
473.58	16.196
473.92	16.188
474.27	16.151
474.61	16.100
474.96	16.033
475.30	16.029
475.65	16.018
475.99	16.004
476.34	15.968
476.68	15.975
477.02	15.905
477.37	15.892
477.71	15.867
478.06	15.863
478.40	15.855
478.75	15.875
479.09	15.882
479.43	15.925
479.78	15.987
480.12	16.069
480.47	16.130
480.81	16.204
481.15	16.254
481.50	16.307
481.84	16.364
482.19	16.451
482.53	16.507
482.87	16.562
483.22	16.578
483.56	16.584
483.90	16.585
484.25	16.577
484.59	16.568
484.94	16.557
485.28	16.546
485.62	16.531
485.97	16.486
486.31	16.462
486.65	16.453
487.00	16.474
487.34	16.520
487.68	16.547
488.03	16.610
488.37	16.661
488.71	16.713
489.06	16.767
489.40	16.829
489.74	16.909
490.09	17.001
490.43	17.074
490.77	17.141
491.11	17.219
491.46	17.299
491.80	17.382
492.14	17.499
492.49	17.627
492.83	17.762
493.17	17.916
493.51	18.082
493.86	18.249
494.20	18.440
494.54	18.663
494.88	18.844
495.23	19.072
495.57	19.262
495.91	19.443
496.25	19.680
496.60	19.876
496.94	20.077
497.28	20.281
497.62	20.479
497.97	20.722
498.31	20.958
498.65	21.239
498.99	21.498
499.33	21.777
499.68	22.102
500.02	22.368
500.36	22.692
500.70	23.016
501.04	23.321
501.39	23.662
501.73	23.991
502.07	24.307
502.41	24.591
502.75	24.913
503.09	25.239
503.44	25.548
503.78	25.919
504.12	26.241
504.46	26.601
504.80	26.968
505.14	27.324
505.49	27.641
505.83	28.009
506.17	28.388
506.51	28.750
506.85	29.117
507.19	29.442
507.53	29.787
507.87	30.171
508.22	30.494
508.56	30.836
508.90	31.156
509.24	31.510
509.58	31.844
509.92	32.182
510.26	32.511
510.60	32.838
510.94	33.224
511.28	33.549
511.63	33.851
511.97	34.200
512.31	34.516
512.65	34.903
512.99	35.257
513.33	35.616
513.67	35.968
514.01	36.312
514.35	36.654
514.69	36.978
515.03	37.244
515.37	37.544
515.71	37.819
516.05	38.110
516.39	38.340
516.73	38.552
517.07	38.754
517.41	38.961
517.75	39.183
518.09	39.427
518.43	39.611
518.77	39.838
519.11	40.066
519.45	40.286
519.79	40.505
520.13	40.721
520.47	41.015
520.81	41.305
521.15	41.541
521.49	41.788
521.83	42.006
522.17	42.251
522.51	42.494
522.85	42.744
523.19	43.019
523.53	43.294
523.87	43.629
524.21	43.915
524.55	44.222
524.89	44.528
525.23	44.779
525.57	45.044
525.91	45.292
526.25	45.495
526.58	45.690
526.92	45.851
527.26	46.009
527.60	46.119
527.94	46.214
528.28	46.276
528.62	46.330
528.96	46.402
529.30	46.449
529.64	46.480
529.97	46.530
530.31	46.581
530.65	46.647
530.99	46.717
531.33	46.783
531.67	46.881
532.01	47.021
532.35	47.115
532.68	47.197
533.02	47.264
533.36	47.347
533.70	47.445
534.04	47.497
534.38	47.577
534.71	47.657
535.05	47.759
535.39	47.847
535.73	47.891
536.07	48.008
536.41	48.133
536.74	48.264
537.08	48.406
537.42	48.548
537.76	48.725
538.10	48.889
538.43	49.060
538.77	49.199
539.11	49.354
539.45	49.515
539.79	49.624
540.12	49.720
540.46	49.813
540.80	49.877
541.14	49.958
541.47	50.000
541.81	49.999
542.15	50.009
542.49	50.070
542.82	50.078
543.16	50.063
543.50	50.101
543.84	50.165
544.17	50.211
544.51	50.230
544.85	50.292
545.18	50.355
545.52	50.432
545.86	50.486
546.20	50.547
546.53	50.604
546.87	50.710
547.21	50.782
547.54	50.829
547.88	50.894
548.22	50.999
548.55	51.005
548.89	51.121
549.23	51.256
549.56	51.388
549.90	51.437
550.24	51.577
550.57	51.631
550.91	51.726
551.25	51.770
551.58	51.880
551.92	51.989
552.26	52.088
552.59	52.101
552.93	52.183
553.27	52.239
553.60	52.292
553.94	52.282
554.27	52.310
554.61	52.375
554.95	52.532
555.28	52.585
555.62	52.650
555.95	52.691
556.29	52.743
556.63	52.778
556.96	52.818
557.30	52.954
557.63	53.063
557.97	53.133
558.31	53.181
558.64	53.224
558.98	53.302
559.31	53.408
559.65	53.523
559.98	53.648
560.32	53.712
560.65	53.814
560.99	53.817
561.33	53.885
561.66	54.005
562.00	54.074
562.33	54.092
562.67	54.088
563.00	54.114
563.34	54.136
563.67	54.192
564.01	54.296
564.34	54.316
564.68	54.428
565.01	54.495
565.35	54.512
565.68	54.599
566.02	54.710
566.35	54.765
566.69	54.858
567.02	54.912
567.36	54.936
567.69	54.948
568.03	55.015
568.36	55.069
568.69	55.102
569.03	55.153
569.36	55.124
569.70	55.131
570.03	55.249
570.37	55.259
570.70	55.274
571.04	55.319
571.37	55.320
571.70	55.369
572.04	55.319
572.37	55.339
572.71	55.408
573.04	55.519
573.37	55.564
573.71	55.515
574.04	55.519
574.38	55.650
574.71	55.702
575.04	55.753
575.38	55.803
575.71	55.920
576.05	55.964
576.38	55.980
576.71	55.916
577.05	55.927
577.38	55.968
577.71	56.071
578.05	56.058
578.38	56.094
578.71	56.129
579.05	56.085
579.38	56.115
579.71	56.187
580.05	56.242
580.38	56.345
580.71	56.390
581.05	56.494
581.38	56.460
581.71	56.508
582.05	56.554
582.38	56.614
582.71	56.709
583.04	56.766
583.38	56.771
583.71	56.774
584.04	56.822
584.38	56.849
584.71	56.834
585.04	56.945
585.37	56.988
585.71	57.037
586.04	57.035
586.37	57.050
586.70	57.080
587.04	57.095
587.37	57.127
587.70	57.135
588.03	57.151
588.37	57.248
588.70	57.224
589.03	57.227
589.36	57.254
589.69	57.317
590.03	57.365
590.36	57.330
590.69	57.334
591.02	57.360
591.35	57.399
591.69	57.386
592.02	57.312
592.35	57.328
592.68	57.359
593.01	57.314
593.35	57.377
593.68	57.364
594.01	57.380
594.34	57.469
594.67	57.453
595.00	57.417
595.34	57.489
595.67	57.503
596.00	57.478
596.33	57.500
596.66	57.542
596.99	57.518
597.32	57.522
597.65	57.528
597.99	57.504
598.32	57.490
598.65	57.504
598.98	57.500
599.31	57.583
599.64	57.605
599.97	57.589
600.30	57.594
600.63	57.585
600.96	57.560
601.30	57.597
601.63	57.545
601.96	57.623
602.29	57.645
602.62	57.624
602.95	57.583
603.28	57.596
603.61	57.602
603.94	57.584
604.27	57.561
604.60	57.633
604.93	57.581
605.26	57.616
605.59	57.619
605.92	57.606
606.25	57.608
606.58	57.636
606.91	57.638
607.24	57.695
607.57	57.689
607.90	57.690
608.23	57.651
608.56	57.683
608.89	57.671
609.22	57.635
609.55	57.612
609.88	57.637
610.21	57.608
610.54	57.582
610.87	57.487
611.20	57.510
611.53	57.553
611.86	57.549
612.19	57.517
612.52	57.490
612.85	57.472
613.18	57.508
613.51	57.483
613.84	57.491
614.17	57.515
614.49	57.459
614.82	57.420
615.15	57.387
615.48	57.393
615.81	57.431
616.14	57.435
616.47	57.416
616.80	57.351
617.13	57.379
617.46	57.382
617.78	57.327
618.11	57.301
618.44	57.315
618.77	57.270
619.10	57.217
619.43	57.170
619.76	57.139
620.09	57.103
620.41	57.121
620.74	57.067
621.07	56.960
621.40	56.930
621.73	56.962
622.06	56.915
622.38	56.960
622.71	56.969
623.04	56.962
623.37	56.954
623.70	56.975
624.02	56.912
624.35	56.866
624.68	56.916
625.01	56.890
625.34	56.875
625.66	56.914
625.99	56.788
626.32	56.739
626.65	56.661
626.98	56.671
627.30	56.574
627.63	56.575
627.96	56.555
628.29	56.496
628.61	56.519
628.94	56.501
629.27	56.449
629.60	56.442
629.92	56.419
630.25	56.439
630.58	56.363
630.91	56.432
631.23	56.405
631.56	56.373
631.89	56.370
632.21	56.300
632.54	56.210
632.87	56.136
633.19	56.131
633.52	56.117
633.85	56.115
634.18	56.059
634.50	56.007
634.83	55.940
635.16	55.922
635.48	55.835
635.81	55.754
636.14	55.783
636.46	55.808
636.79	55.787
637.11	55.718
637.44	55.608
637.77	55.550
638.09	55.421
638.42	55.441
638.75	55.413
639.07	55.424
639.40	55.472
639.73	55.362
640.05	55.303
640.38	55.214
640.70	55.185
641.03	55.086
641.36	55.069
641.68	55.061
642.01	54.948
642.33	54.848
