OOIBase32 Version 2.0.0.6 Data File
++++++++++++++++++++++++++++++++++++
Date: 01-18-2012, 22:56:09
User: Valued Ocean Optics Customer
Spectrometer Serial Number: USB2E2917
Spectrometer Channel: Master
Integration Time (msec): 5
Spectra Averaged: 10
Boxcar Smoothing: 5
Correct for Electrical Dark: Enabled
Time Normalized: Disabled
Dual-beam Reference: Disabled
Reference Channel: Master
Temperature: Not acquired
Spectrometer Type: S2000
ADC Type: USB2000
Number of Pixels in File: 2048
Graph Title: 
>>>>>Begin Spectral Data<<<<<
180.30	0.000
180.67	0.000
181.03	-567.778
181.40	79.496
181.77	95.046
182.14	-180.919
182.51	45.053
182.88	34.349
183.25	160.484
183.62	107.606
183.99	21.422
184.36	29.377
184.73	161.061
185.10	318.247
185.46	219.171
185.83	-24.340
186.20	92.047
186.57	450.741
186.94	-29.864
187.31	-44.213
187.68	-66.044
188.05	132.445
188.42	122.038
188.78	92.892
189.15	90.779
189.52	65.699
189.89	60.250
190.26	53.105
190.63	49.953
191.00	47.170
191.37	51.888
191.73	52.393
192.10	44.258
192.47	29.311
192.84	22.364
193.21	19.111
193.58	25.307
193.94	18.067
194.31	17.513
194.68	38.485
195.05	37.075
195.42	36.671
195.79	27.842
196.15	20.983
196.52	29.903
196.89	35.707
197.26	45.754
197.63	44.415
198.00	32.600
198.36	39.259
198.73	28.539
199.10	12.280
199.47	13.141
199.84	15.676
200.20	21.381
200.57	22.126
200.94	7.705
201.31	13.085
201.68	24.761
202.04	21.229
202.41	18.553
202.78	14.304
203.15	23.434
203.51	27.476
203.88	35.712
204.25	34.382
204.62	22.315
204.98	36.602
205.35	30.659
205.72	31.426
206.09	45.033
206.46	35.170
206.82	48.716
207.19	47.731
207.56	41.990
207.92	32.849
208.29	35.273
208.66	44.184
209.03	45.582
209.39	49.808
209.76	44.701
210.13	32.550
210.50	33.735
210.86	25.817
211.23	35.124
211.60	32.148
211.96	42.206
212.33	44.100
212.70	40.666
213.07	46.189
213.43	53.734
213.80	55.866
214.17	65.961
214.53	60.440
214.90	53.110
215.27	41.655
215.63	42.395
216.00	40.402
216.37	44.393
216.74	42.047
217.10	33.630
217.47	29.090
217.84	24.712
218.20	14.134
218.57	10.580
218.94	15.106
219.30	13.306
219.67	13.189
220.04	13.280
220.40	-0.209
220.77	-13.170
221.13	-7.266
221.50	-13.168
221.87	-12.709
222.23	-10.654
222.60	7.168
222.97	8.459
223.33	17.076
223.70	17.074
224.07	11.062
224.43	11.894
224.80	17.990
225.16	15.784
225.53	15.843
225.90	13.831
226.26	11.401
226.63	8.628
226.99	8.939
227.36	6.733
227.73	7.494
228.09	7.240
228.46	7.514
228.82	6.693
229.19	6.855
229.56	6.645
229.92	7.595
230.29	9.499
230.65	8.509
231.02	6.704
231.38	6.945
231.75	4.751
232.12	5.423
232.48	6.499
232.85	5.133
233.21	5.302
233.58	5.886
233.94	5.818
234.31	5.851
234.68	7.543
235.04	6.586
235.41	8.011
235.77	10.044
236.14	9.793
236.50	7.835
236.87	8.087
237.23	7.192
237.60	6.763
237.96	5.351
238.33	5.736
238.69	6.034
239.06	6.120
239.42	5.841
239.79	5.086
240.15	5.337
240.52	6.444
240.88	6.330
241.25	6.945
241.61	7.100
241.98	7.595
242.34	6.804
242.71	5.957
243.07	5.722
243.44	5.659
243.80	6.138
244.17	6.128
244.53	5.723
244.90	5.649
245.26	5.294
245.63	5.355
245.99	5.276
246.36	5.354
246.72	5.802
247.09	6.411
247.45	6.098
247.81	5.597
248.18	5.811
248.54	6.398
248.91	6.382
249.27	6.501
249.64	6.101
250.00	5.653
250.36	5.720
250.73	4.781
251.09	4.083
251.46	4.366
251.82	4.671
252.19	4.307
252.55	3.483
252.91	3.819
253.28	3.686
253.64	4.204
254.01	4.778
254.37	4.594
254.73	5.487
255.10	5.331
255.46	4.909
255.83	4.509
256.19	4.291
256.55	4.348
256.92	4.162
257.28	4.312
257.65	4.308
258.01	4.411
258.37	4.470
258.74	4.543
259.10	4.696
259.46	5.003
259.83	5.036
260.19	5.392
260.55	5.450
260.92	5.309
261.28	5.237
261.64	5.238
262.01	5.025
262.37	5.316
262.73	5.051
263.10	5.585
263.46	5.410
263.82	5.333
264.19	5.042
264.55	4.832
264.91	5.051
265.28	4.857
265.64	4.906
266.00	4.903
266.37	4.626
266.73	4.415
267.09	4.113
267.46	3.799
267.82	3.783
268.18	3.661
268.54	3.777
268.91	4.039
269.27	4.068
269.63	3.741
270.00	3.528
270.36	3.507
270.72	3.553
271.08	3.451
271.45	3.637
271.81	3.765
272.17	3.640
272.53	3.757
272.90	3.528
273.26	3.462
273.62	3.487
273.98	3.731
274.35	3.661
274.71	3.625
275.07	3.387
275.43	2.832
275.80	2.861
276.16	3.581
276.52	3.619
276.88	3.606
277.25	3.822
277.61	4.017
277.97	4.055
278.33	4.106
278.69	4.127
279.06	4.237
279.42	4.635
279.78	4.713
280.14	4.308
280.50	4.104
280.87	4.172
281.23	4.114
281.59	4.293
281.95	4.255
282.31	4.265
282.68	4.522
283.04	4.485
283.40	4.411
283.76	4.212
284.12	3.969
284.48	3.865
284.85	3.617
285.21	3.397
285.57	3.256
285.93	3.325
286.29	3.251
286.65	3.031
287.02	3.200
287.38	3.319
287.74	3.460
288.10	3.605
288.46	3.745
288.82	3.843
289.18	4.180
289.54	4.072
289.91	3.941
290.27	4.009
290.63	4.177
290.99	3.969
291.35	4.018
291.71	4.335
292.07	4.457
292.43	4.153
292.79	4.231
293.16	3.806
293.52	3.987
293.88	3.973
294.24	4.031
294.60	3.916
294.96	4.251
295.32	4.183
295.68	4.038
296.04	4.153
296.40	4.493
296.76	4.606
297.12	4.796
297.49	4.857
297.85	4.837
298.21	4.856
298.57	4.861
298.93	4.542
299.29	4.704
299.65	4.857
300.01	4.764
300.37	4.912
300.73	4.940
301.09	5.304
301.45	5.306
301.81	5.398
302.17	5.485
302.53	5.693
302.89	5.805
303.25	5.621
303.61	5.495
303.97	5.476
304.33	5.246
304.69	5.170
305.05	5.005
305.41	5.094
305.77	5.122
306.13	4.917
306.49	4.823
306.85	4.871
307.21	5.035
307.57	4.868
307.93	5.005
308.29	5.154
308.65	5.146
309.01	5.067
309.37	4.865
309.73	4.893
310.09	5.055
310.45	5.073
310.81	5.157
311.17	5.170
311.53	5.288
311.89	5.182
312.25	5.011
312.61	5.112
312.96	5.037
313.32	5.118
313.68	5.118
314.04	5.029
314.40	4.968
314.76	4.855
315.12	4.832
315.48	4.905
315.84	4.904
316.20	4.878
316.56	4.832
316.92	4.877
317.27	4.964
317.63	5.057
317.99	5.144
318.35	5.275
318.71	5.182
319.07	5.132
319.43	5.088
319.79	5.118
320.15	5.250
320.50	5.125
320.86	5.281
321.22	5.398
321.58	5.315
321.94	5.326
322.30	5.224
322.66	5.509
323.01	5.468
323.37	5.591
323.73	5.691
324.09	5.721
324.45	5.963
324.81	6.066
325.17	5.960
325.52	5.986
325.88	6.047
326.24	6.244
326.60	6.219
326.96	6.420
327.31	6.531
327.67	6.636
328.03	6.792
328.39	6.910
328.75	6.835
329.11	6.981
329.46	7.226
329.82	7.394
330.18	7.475
330.54	7.640
330.90	7.758
331.25	7.712
331.61	7.643
331.97	7.479
332.33	7.509
332.68	7.641
333.04	7.713
333.40	7.758
333.76	7.694
334.11	7.700
334.47	7.675
334.83	7.638
335.19	7.670
335.54	7.811
335.90	7.902
336.26	7.896
336.62	7.811
336.97	7.767
337.33	7.809
337.69	7.880
338.05	7.983
338.40	7.943
338.76	7.944
339.12	8.039
339.48	8.045
339.83	8.176
340.19	8.221
340.55	8.288
340.90	8.363
341.26	8.273
341.62	8.219
341.97	8.201
342.33	8.250
342.69	8.207
343.04	8.261
343.40	8.188
343.76	8.291
344.12	8.380
344.47	8.520
344.83	8.475
345.19	8.522
345.54	8.540
345.90	8.466
346.26	8.362
346.61	8.489
346.97	8.483
347.32	8.579
347.68	8.438
348.04	8.373
348.39	8.416
348.75	8.496
349.11	8.476
349.46	8.598
349.82	8.572
350.18	8.726
350.53	8.734
350.89	8.735
351.24	8.746
351.60	8.808
351.96	8.905
352.31	8.897
352.67	8.911
353.02	9.039
353.38	9.060
353.74	9.137
354.09	9.107
354.45	9.199
354.80	9.201
355.16	9.242
355.52	9.255
355.87	9.272
356.23	9.229
356.58	9.259
356.94	9.162
357.29	9.075
357.65	9.135
358.00	9.260
358.36	9.135
358.72	9.230
359.07	9.254
359.43	9.279
359.78	9.276
360.14	9.314
360.49	9.326
360.85	9.341
361.20	9.408
361.56	9.428
361.91	9.327
362.27	9.425
362.62	9.442
362.98	9.503
363.33	9.494
363.69	9.438
364.04	9.453
364.40	9.439
364.75	9.499
365.11	9.562
365.46	9.528
365.82	9.595
366.17	9.576
366.53	9.575
366.88	9.563
367.24	9.672
367.59	9.721
367.95	9.731
368.30	9.816
368.66	9.805
369.01	9.793
369.37	9.889
369.72	9.870
370.08	9.966
370.43	9.974
370.78	10.017
371.14	10.086
371.49	10.204
371.85	10.250
372.20	10.203
372.56	10.258
372.91	10.387
373.26	10.374
373.62	10.484
373.97	10.458
374.33	10.518
374.68	10.452
375.03	10.374
375.39	10.355
375.74	10.424
376.10	10.478
376.45	10.518
376.80	10.485
377.16	10.551
377.51	10.528
377.87	10.557
378.22	10.634
378.57	10.754
378.93	10.859
379.28	10.960
379.63	11.035
379.99	11.140
380.34	11.159
380.70	11.286
381.05	11.430
381.40	11.535
381.76	11.668
382.11	11.735
382.46	11.798
382.82	11.915
383.17	12.040
383.52	12.065
383.88	12.170
384.23	12.358
384.58	12.407
384.94	12.423
385.29	12.465
385.64	12.517
385.99	12.514
386.35	12.621
386.70	12.646
387.05	12.683
387.41	12.773
387.76	12.820
388.11	12.862
388.47	12.910
388.82	13.009
389.17	13.104
389.52	13.181
389.88	13.302
390.23	13.343
390.58	13.459
390.93	13.453
391.29	13.563
391.64	13.586
391.99	13.619
392.34	13.581
392.70	13.572
393.05	13.628
393.40	13.658
393.75	13.665
394.11	13.699
394.46	13.700
394.81	13.740
395.16	13.724
395.52	13.715
395.87	13.692
396.22	13.832
396.57	13.855
396.92	13.832
397.28	13.828
397.63	13.835
397.98	13.869
398.33	13.855
398.68	13.874
399.04	13.879
399.39	13.922
399.74	13.962
400.09	13.939
400.44	13.927
400.80	13.999
401.15	14.016
401.50	14.075
401.85	14.063
402.20	14.121
402.55	14.184
402.90	14.208
403.26	14.229
403.61	14.259
403.96	14.300
404.31	14.333
404.66	14.335
405.01	14.352
405.36	14.342
405.72	14.407
406.07	14.442
406.42	14.418
406.77	14.487
407.12	14.530
407.47	14.598
407.82	14.622
408.17	14.718
408.53	14.742
408.88	14.837
409.23	14.876
409.58	14.885
409.93	14.859
410.28	14.898
410.63	14.866
410.98	14.916
411.33	14.929
411.68	14.944
412.03	14.921
412.38	14.970
412.73	14.922
413.09	14.905
413.44	14.917
413.79	14.942
414.14	14.905
414.49	14.953
414.84	14.923
415.19	14.926
415.54	14.891
415.89	14.867
416.24	14.849
416.59	14.873
416.94	14.885
417.29	14.870
417.64	14.830
417.99	14.815
418.34	14.789
418.69	14.767
419.04	14.749
419.39	14.789
419.74	14.803
420.09	14.781
420.44	14.764
420.79	14.758
421.14	14.727
421.49	14.744
421.84	14.761
422.19	14.762
422.54	14.763
422.89	14.732
423.24	14.685
423.59	14.655
423.94	14.649
424.29	14.629
424.64	14.617
424.99	14.638
425.34	14.648
425.68	14.661
426.03	14.655
426.38	14.663
426.73	14.687
427.08	14.704
427.43	14.729
427.78	14.728
428.13	14.756
428.48	14.783
428.83	14.811
429.18	14.832
429.53	14.859
429.87	14.847
430.22	14.866
430.57	14.903
430.92	14.910
431.27	14.921
431.62	14.934
431.97	14.939
432.32	14.939
432.67	14.925
433.01	14.913
433.36	14.899
433.71	14.926
434.06	14.973
434.41	14.972
434.76	15.005
435.11	15.044
435.45	15.083
435.80	15.102
436.15	15.136
436.50	15.147
436.85	15.129
437.20	15.117
437.54	15.120
437.89	15.079
438.24	15.077
438.59	15.051
438.94	15.040
439.29	15.021
439.63	15.001
439.98	14.963
440.33	14.957
440.68	14.972
441.03	14.993
441.37	14.965
441.72	14.966
442.07	14.929
442.42	14.910
442.76	14.861
443.11	14.831
443.46	14.790
443.81	14.755
444.16	14.718
444.50	14.686
444.85	14.605
445.20	14.565
445.55	14.503
445.89	14.500
446.24	14.462
446.59	14.439
446.94	14.408
447.28	14.390
447.63	14.350
447.98	14.318
448.32	14.267
448.67	14.262
449.02	14.231
449.37	14.218
449.71	14.142
450.06	14.116
450.41	14.077
450.75	14.026
451.10	14.030
451.45	14.024
451.79	13.974
452.14	13.977
452.49	13.975
452.84	13.992
453.18	13.981
453.53	13.999
453.88	14.009
454.22	14.003
454.57	14.029
454.92	14.026
455.26	14.074
455.61	14.145
455.95	14.158
456.30	14.189
456.65	14.196
456.99	14.231
457.34	14.263
457.69	14.297
458.03	14.323
458.38	14.373
458.73	14.399
459.07	14.427
459.42	14.440
459.76	14.477
460.11	14.527
460.46	14.571
460.80	14.622
461.15	14.664
461.49	14.712
461.84	14.788
462.19	14.843
462.53	14.910
462.88	14.932
463.22	14.984
463.57	15.055
463.91	15.122
464.26	15.189
464.61	15.238
464.95	15.320
465.30	15.408
465.64	15.452
465.99	15.476
466.33	15.534
466.68	15.590
467.02	15.643
467.37	15.685
467.71	15.682
468.06	15.727
468.41	15.772
468.75	15.805
469.10	15.794
469.44	15.834
469.79	15.869
470.13	15.909
470.48	15.930
470.82	15.976
471.17	15.973
471.51	16.019
471.86	16.018
472.20	16.013
472.55	15.968
472.89	15.979
473.23	15.987
473.58	15.957
473.92	15.902
474.27	15.894
474.61	15.877
474.96	15.862
475.30	15.848
475.65	15.819
475.99	15.794
476.34	15.807
476.68	15.790
477.02	15.746
477.37	15.748
477.71	15.735
478.06	15.700
478.40	15.685
478.75	15.708
479.09	15.742
479.43	15.793
479.78	15.839
480.12	15.926
480.47	16.003
480.81	16.063
481.15	16.109
481.50	16.178
481.84	16.245
482.19	16.295
482.53	16.361
482.87	16.393
483.22	16.417
483.56	16.430
483.90	16.409
484.25	16.383
484.59	16.371
484.94	16.371
485.28	16.334
485.62	16.296
485.97	16.277
486.31	16.225
486.65	16.214
487.00	16.228
487.34	16.258
487.68	16.279
488.03	16.324
488.37	16.369
488.71	16.393
489.06	16.441
489.40	16.508
489.74	16.569
490.09	16.645
490.43	16.690
490.77	16.737
491.11	16.798
491.46	16.874
491.80	16.941
492.14	17.022
492.49	17.137
492.83	17.259
493.17	17.385
493.51	17.528
493.86	17.680
494.20	17.873
494.54	18.045
494.88	18.206
495.23	18.403
495.57	18.596
495.91	18.783
496.25	18.995
496.60	19.185
496.94	19.380
497.28	19.583
497.62	19.784
497.97	19.999
498.31	20.243
498.65	20.524
498.99	20.777
499.33	21.058
499.68	21.357
500.02	21.616
500.36	21.959
500.70	22.291
501.04	22.592
501.39	22.934
501.73	23.259
502.07	23.600
502.41	23.903
502.75	24.240
503.09	24.577
503.44	24.915
503.78	25.312
504.12	25.648
504.46	26.040
504.80	26.422
505.14	26.803
505.49	27.170
505.83	27.510
506.17	27.902
506.51	28.311
506.85	28.702
507.19	29.074
507.53	29.442
507.87	29.834
508.22	30.157
508.56	30.526
508.90	30.912
509.24	31.280
509.58	31.683
509.92	32.065
510.26	32.426
510.60	32.796
510.94	33.171
511.28	33.549
511.63	33.900
511.97	34.301
512.31	34.647
512.65	35.030
512.99	35.450
513.33	35.858
513.67	36.229
514.01	36.640
514.35	37.014
514.69	37.412
515.03	37.768
515.37	38.135
515.71	38.468
516.05	38.816
516.39	39.096
516.73	39.373
517.07	39.616
517.41	39.889
517.75	40.120
518.09	40.392
518.43	40.610
518.77	40.807
519.11	41.048
519.45	41.296
519.79	41.545
520.13	41.784
520.47	42.044
520.81	42.330
521.15	42.627
521.49	42.927
521.83	43.173
522.17	43.451
522.51	43.769
522.85	44.060
523.19	44.391
523.53	44.754
523.87	45.191
524.21	45.590
524.55	45.974
524.89	46.318
525.23	46.619
525.57	46.924
525.91	47.205
526.25	47.470
526.58	47.692
526.92	47.881
527.26	48.051
527.60	48.168
527.94	48.246
528.28	48.347
528.62	48.443
528.96	48.525
529.30	48.600
529.64	48.678
529.97	48.720
530.31	48.771
530.65	48.838
530.99	48.910
531.33	48.998
531.67	49.124
532.01	49.202
532.35	49.272
532.68	49.364
533.02	49.452
533.36	49.504
533.70	49.599
534.04	49.663
534.38	49.744
534.71	49.826
535.05	49.924
535.39	50.013
535.73	50.100
536.07	50.197
536.41	50.316
536.74	50.450
537.08	50.609
537.42	50.793
537.76	50.992
538.10	51.170
538.43	51.338
538.77	51.516
539.11	51.685
539.45	51.862
539.79	52.007
540.12	52.136
540.46	52.222
540.80	52.287
541.14	52.308
541.47	52.348
541.81	52.377
542.15	52.420
542.49	52.443
542.82	52.449
543.16	52.488
543.50	52.506
543.84	52.543
544.17	52.639
544.51	52.711
544.85	52.811
545.18	52.883
545.52	52.904
545.86	52.965
546.20	53.033
546.53	53.085
546.87	53.138
547.21	53.192
547.54	53.259
547.88	53.324
548.22	53.415
548.55	53.447
548.89	53.554
549.23	53.717
549.56	53.842
549.90	53.881
550.24	53.988
550.57	54.026
550.91	54.145
551.25	54.208
551.58	54.252
551.92	54.342
552.26	54.430
552.59	54.471
552.93	54.535
553.27	54.579
553.60	54.625
553.94	54.679
554.27	54.778
554.61	54.837
554.95	54.898
555.28	54.944
555.62	55.012
555.95	55.095
556.29	55.166
556.63	55.229
556.96	55.289
557.30	55.397
557.63	55.469
557.97	55.482
558.31	55.508
558.64	55.567
558.98	55.657
559.31	55.692
559.65	55.789
559.98	55.846
560.32	55.906
560.65	55.974
560.99	56.034
561.33	56.174
561.66	56.315
562.00	56.407
562.33	56.489
562.67	56.474
563.00	56.546
563.34	56.573
563.67	56.662
564.01	56.740
564.34	56.836
564.68	56.862
565.01	56.862
565.35	56.848
565.68	56.903
566.02	56.948
566.35	57.031
566.69	57.125
567.02	57.140
567.36	57.211
567.69	57.204
568.03	57.201
568.36	57.270
568.69	57.343
569.03	57.366
569.36	57.360
569.70	57.388
570.03	57.466
570.37	57.480
570.70	57.552
571.04	57.539
571.37	57.609
571.70	57.662
572.04	57.734
572.37	57.742
572.71	57.832
573.04	57.953
573.37	58.012
573.71	58.070
574.04	58.088
574.38	58.147
574.71	58.202
575.04	58.246
575.38	58.277
575.71	58.303
576.05	58.353
576.38	58.369
576.71	58.408
577.05	58.428
577.38	58.422
577.71	58.512
578.05	58.529
578.38	58.609
578.71	58.617
579.05	58.630
579.38	58.686
579.71	58.749
580.05	58.802
580.38	58.796
580.71	58.851
581.05	58.870
581.38	58.808
581.71	58.856
582.05	58.843
582.38	58.905
582.71	58.961
583.04	58.926
583.38	58.911
583.71	59.002
584.04	59.001
584.38	58.992
584.71	59.070
585.04	59.199
585.37	59.215
585.71	59.284
586.04	59.272
586.37	59.306
586.70	59.392
587.04	59.459
587.37	59.418
587.70	59.478
588.03	59.523
588.37	59.560
588.70	59.559
589.03	59.557
589.36	59.609
589.69	59.634
590.03	59.616
590.36	59.574
590.69	59.575
591.02	59.580
591.35	59.598
591.69	59.598
592.02	59.570
592.35	59.575
592.68	59.601
593.01	59.545
593.35	59.665
593.68	59.723
594.01	59.797
594.34	59.827
594.67	59.902
595.00	59.898
595.34	59.946
595.67	59.958
596.00	59.953
596.33	59.974
596.66	60.035
596.99	60.043
597.32	60.061
597.65	60.041
597.99	60.030
598.32	59.985
598.65	59.974
598.98	59.973
599.31	59.939
599.64	59.981
599.97	60.009
600.30	59.963
600.63	59.905
600.96	59.864
601.30	59.897
601.63	59.847
601.96	59.822
602.29	59.847
602.62	59.789
602.95	59.804
603.28	59.726
603.61	59.693
603.94	59.693
604.27	59.664
604.60	59.701
604.93	59.615
605.26	59.606
605.59	59.647
605.92	59.679
606.25	59.672
606.58	59.726
606.91	59.717
607.24	59.802
607.57	59.760
607.90	59.756
608.23	59.709
608.56	59.738
608.89	59.759
609.22	59.771
609.55	59.748
609.88	59.746
610.21	59.671
610.54	59.654
610.87	59.546
611.20	59.536
611.53	59.542
611.86	59.542
612.19	59.547
612.52	59.535
612.85	59.488
613.18	59.345
613.51	59.360
613.84	59.373
614.17	59.457
614.49	59.429
614.82	59.434
615.15	59.378
615.48	59.293
615.81	59.263
616.14	59.229
616.47	59.213
616.80	59.232
617.13	59.241
617.46	59.250
617.78	59.161
618.11	59.079
618.44	59.022
618.77	59.007
619.10	59.020
619.43	58.981
619.76	58.941
620.09	58.782
620.41	58.833
620.74	58.805
621.07	58.682
621.40	58.675
621.73	58.707
622.06	58.704
622.38	58.717
622.71	58.731
623.04	58.652
623.37	58.654
623.70	58.721
624.02	58.596
624.35	58.537
624.68	58.561
625.01	58.523
625.34	58.517
625.66	58.500
625.99	58.408
626.32	58.357
626.65	58.361
626.98	58.332
627.30	58.250
627.63	58.235
627.96	58.165
628.29	58.095
628.61	58.105
628.94	58.044
629.27	58.026
629.60	57.977
629.92	57.962
630.25	57.949
630.58	57.889
630.91	57.892
631.23	57.804
631.56	57.814
631.89	57.768
632.21	57.678
632.54	57.596
632.87	57.497
633.19	57.538
633.52	57.442
633.85	57.382
634.18	57.339
634.50	57.304
634.83	57.323
635.16	57.168
635.48	57.070
635.81	56.951
636.14	56.915
636.46	56.865
636.79	56.728
637.11	56.672
637.44	56.579
637.77	56.449
638.09	56.308
638.42	56.240
638.75	56.295
639.07	56.229
639.40	56.219
639.73	56.132
640.05	56.095
640.38	56.000
640.70	55.966
641.03	55.865
641.36	55.845
641.68	55.810
