OOIBase32 Version 2.0.0.6 Data File
++++++++++++++++++++++++++++++++++++
Date: 01-19-2012, 17:38:18
User: Valued Ocean Optics Customer
Spectrometer Serial Number: USB2E2917
Spectrometer Channel: Master
Integration Time (msec): 6
Spectra Averaged: 10
Boxcar Smoothing: 5
Correct for Electrical Dark: Enabled
Time Normalized: Disabled
Dual-beam Reference: Disabled
Reference Channel: Master
Temperature: Not acquired
Spectrometer Type: S2000
ADC Type: USB2000
Number of Pixels in File: 2048
Graph Title: 
>>>>>Begin Spectral Data<<<<<
180.30	0.000
180.67	0.000
181.03	91.116
181.40	-43.312
181.77	34.032
182.14	91.998
182.51	43.911
182.88	59.902
183.25	-104.878
183.62	-73.767
183.99	441.130
184.36	115.820
184.73	-120.191
185.10	67.793
185.46	61.461
185.83	160.005
186.20	11.659
186.57	25.593
186.94	115.124
187.31	135.708
187.68	49.933
188.05	57.210
188.42	44.515
188.78	46.977
189.15	37.187
189.52	33.159
189.89	40.344
190.26	37.265
190.63	33.296
191.00	28.844
191.37	25.878
191.73	32.179
192.10	28.071
192.47	24.697
192.84	24.852
193.21	28.439
193.58	23.619
193.94	-4.369
194.31	-18.007
194.68	-18.181
195.05	-31.584
195.42	-39.380
195.79	-49.012
196.15	-31.837
196.52	-22.907
196.89	-33.543
197.26	-44.881
197.63	-43.702
198.00	-30.579
198.36	-25.802
198.73	-28.629
199.10	-16.569
199.47	-24.640
199.84	-9.841
200.20	-7.152
200.57	-15.228
200.94	-5.279
201.31	10.629
201.68	17.544
202.04	16.663
202.41	24.584
202.78	29.596
203.15	31.641
203.51	41.791
203.88	42.603
204.25	40.983
204.62	45.364
204.98	48.785
205.35	38.855
205.72	47.541
206.09	38.581
206.46	30.450
206.82	33.521
207.19	18.800
207.56	-11.631
207.92	-20.503
208.29	-49.135
208.66	-68.630
209.03	-78.060
209.39	-83.340
209.76	-71.386
210.13	-54.279
210.50	-37.840
210.86	-36.605
211.23	-18.931
211.60	2.863
211.96	4.276
212.33	12.922
212.70	17.388
213.07	18.056
213.43	22.973
213.80	13.012
214.17	7.916
214.53	-3.906
214.90	7.084
215.27	-0.563
215.63	-4.719
216.00	-11.726
216.37	-14.611
216.74	-13.146
217.10	-14.752
217.47	-19.562
217.84	-10.929
218.20	1.914
218.57	3.034
218.94	-5.725
219.30	-8.320
219.67	0.315
220.04	0.753
220.40	2.780
220.77	1.038
221.13	3.918
221.50	3.293
221.87	5.426
222.23	0.860
222.60	-3.361
222.97	-4.294
223.33	2.665
223.70	-3.265
224.07	-2.428
224.43	-1.359
224.80	0.581
225.16	3.644
225.53	3.994
225.90	3.823
226.26	2.116
226.63	1.638
226.99	2.618
227.36	1.775
227.73	2.112
228.09	1.923
228.46	2.514
228.82	2.747
229.19	1.390
229.56	0.400
229.92	-0.237
230.29	0.191
230.65	1.625
231.02	0.607
231.38	-0.075
231.75	0.152
232.12	0.568
232.48	0.734
232.85	0.425
233.21	-0.275
233.58	0.497
233.94	0.865
234.31	2.650
234.68	1.133
235.04	2.756
235.41	2.252
235.77	1.888
236.14	2.411
236.50	1.691
236.87	1.910
237.23	2.563
237.60	2.313
237.96	2.394
238.33	2.022
238.69	2.612
239.06	2.008
239.42	2.106
239.79	2.415
240.15	2.624
240.52	2.676
240.88	2.383
241.25	2.625
241.61	2.723
241.98	2.620
242.34	2.570
242.71	2.419
243.07	2.257
243.44	2.667
243.80	2.536
244.17	2.018
244.53	2.114
244.90	1.987
245.26	1.972
245.63	1.902
245.99	1.784
246.36	1.935
246.72	1.988
247.09	2.296
247.45	2.213
247.81	2.192
248.18	2.310
248.54	2.215
248.91	2.364
249.27	2.113
249.64	2.175
250.00	2.417
250.36	2.179
250.73	2.245
251.09	2.123
251.46	2.221
251.82	2.300
252.19	2.380
252.55	2.348
252.91	2.275
253.28	2.792
253.64	2.988
254.01	3.310
254.37	3.124
254.73	3.019
255.10	2.763
255.46	2.791
255.83	2.901
256.19	3.105
256.55	3.074
256.92	3.079
257.28	2.628
257.65	2.323
258.01	2.322
258.37	2.427
258.74	2.348
259.10	2.326
259.46	2.012
259.83	2.148
260.19	2.153
260.55	2.057
260.92	1.974
261.28	2.054
261.64	2.279
262.01	2.317
262.37	2.358
262.73	2.695
263.10	2.827
263.46	3.021
263.82	2.406
264.19	2.103
264.55	2.150
264.91	2.053
265.28	2.312
265.64	2.468
266.00	2.186
266.37	2.063
266.73	1.909
267.09	1.904
267.46	2.064
267.82	2.350
268.18	2.196
268.54	2.217
268.91	2.576
269.27	2.446
269.63	2.205
270.00	2.219
270.36	2.080
270.72	2.073
271.08	2.073
271.45	2.177
271.81	2.014
272.17	2.360
272.53	2.336
272.90	2.035
273.26	2.101
273.62	2.245
273.98	2.175
274.35	2.313
274.71	2.324
275.07	2.261
275.43	1.930
275.80	2.016
276.16	1.757
276.52	1.861
276.88	2.085
277.25	1.934
277.61	1.817
277.97	1.984
278.33	1.864
278.69	1.737
279.06	1.611
279.42	1.860
279.78	1.846
280.14	1.838
280.50	1.833
280.87	1.832
281.23	1.902
281.59	1.850
281.95	1.882
282.31	1.942
282.68	2.074
283.04	2.014
283.40	1.921
283.76	1.894
284.12	2.147
284.48	2.165
284.85	2.052
285.21	1.982
285.57	2.166
285.93	1.921
286.29	1.765
286.65	1.885
287.02	1.990
287.38	2.050
287.74	2.154
288.10	1.973
288.46	2.018
288.82	2.262
289.18	2.497
289.54	2.287
289.91	2.490
290.27	2.734
290.63	2.677
290.99	2.792
291.35	2.704
291.71	2.656
292.07	2.484
292.43	2.420
292.79	2.217
293.16	2.026
293.52	1.966
293.88	1.957
294.24	1.934
294.60	1.858
294.96	1.904
295.32	2.026
295.68	1.995
296.04	2.182
296.40	2.145
296.76	2.128
297.12	2.186
297.49	2.361
297.85	2.366
298.21	2.394
298.57	2.348
298.93	2.205
299.29	2.110
299.65	2.034
300.01	2.074
300.37	2.252
300.73	2.378
301.09	2.260
301.45	2.158
301.81	2.104
302.17	2.119
302.53	1.951
302.89	2.048
303.25	2.066
303.61	2.051
303.97	2.014
304.33	1.866
304.69	1.754
305.05	1.846
305.41	1.864
305.77	2.020
306.13	2.042
306.49	2.269
306.85	2.212
307.21	2.337
307.57	2.467
307.93	2.463
308.29	2.464
308.65	2.577
309.01	2.564
309.37	2.609
309.73	2.491
310.09	2.461
310.45	2.565
310.81	2.611
311.17	2.531
311.53	2.461
311.89	2.419
312.25	2.471
312.61	2.505
312.96	2.495
313.32	2.567
313.68	2.609
314.04	2.556
314.40	2.503
314.76	2.569
315.12	2.503
315.48	2.576
315.84	2.615
316.20	2.635
316.56	2.520
316.92	2.612
317.27	2.511
317.63	2.501
317.99	2.721
318.35	2.717
318.71	2.690
319.07	2.734
319.43	2.806
319.79	2.800
320.15	2.781
320.50	2.869
320.86	2.771
321.22	2.887
321.58	2.959
321.94	2.797
322.30	2.714
322.66	2.763
323.01	2.754
323.37	2.772
323.73	2.756
324.09	2.713
324.45	2.601
324.81	2.619
325.17	2.521
325.52	2.491
325.88	2.546
326.24	2.621
326.60	2.667
326.96	2.737
327.31	2.639
327.67	2.674
328.03	2.675
328.39	2.790
328.75	2.899
329.11	2.851
329.46	2.848
329.82	2.838
330.18	2.794
330.54	2.670
330.90	2.611
331.25	2.606
331.61	2.712
331.97	2.705
332.33	2.583
332.68	2.534
333.04	2.681
333.40	2.694
333.76	2.759
334.11	2.665
334.47	2.721
334.83	2.770
335.19	2.848
335.54	2.726
335.90	2.768
336.26	2.848
336.62	2.779
336.97	2.694
337.33	2.633
337.69	2.525
338.05	2.612
338.40	2.551
338.76	2.465
339.12	2.491
339.48	2.493
339.83	2.625
340.19	2.614
340.55	2.658
340.90	2.659
341.26	2.769
341.62	2.837
341.97	2.896
342.33	2.905
342.69	2.935
343.04	2.984
343.40	2.997
343.76	2.939
344.12	2.954
344.47	2.914
344.83	3.000
345.19	3.067
345.54	3.106
345.90	3.061
346.26	3.072
346.61	3.145
346.97	3.078
347.32	3.117
347.68	3.111
348.04	3.157
348.39	3.213
348.75	3.111
349.11	3.074
349.46	2.984
349.82	2.978
350.18	2.994
350.53	2.970
350.89	2.966
351.24	2.991
351.60	2.971
351.96	2.851
352.31	2.881
352.67	2.948
353.02	2.975
353.38	3.034
353.74	3.093
354.09	3.143
354.45	3.112
354.80	3.097
355.16	3.089
355.52	3.087
355.87	3.152
356.23	3.138
356.58	3.164
356.94	3.125
357.29	3.152
357.65	3.164
358.00	3.133
358.36	3.176
358.72	3.188
359.07	3.101
359.43	3.042
359.78	3.000
360.14	2.990
360.49	3.034
360.85	3.035
361.20	3.031
361.56	3.008
361.91	3.038
362.27	3.002
362.62	2.995
362.98	3.066
363.33	3.112
363.69	3.163
364.04	3.158
364.40	3.130
364.75	3.103
365.11	3.084
365.46	3.090
365.82	3.073
366.17	3.061
366.53	3.081
366.88	3.073
367.24	3.093
367.59	3.096
367.95	3.164
368.30	3.187
368.66	3.194
369.01	3.220
369.37	3.229
369.72	3.247
370.08	3.301
370.43	3.329
370.78	3.326
371.14	3.321
371.49	3.327
371.85	3.304
372.20	3.263
372.56	3.303
372.91	3.238
373.26	3.247
373.62	3.266
373.97	3.263
374.33	3.262
374.68	3.257
375.03	3.239
375.39	3.262
375.74	3.292
376.10	3.326
376.45	3.258
376.80	3.295
377.16	3.279
377.51	3.257
377.87	3.268
378.22	3.240
378.57	3.256
378.93	3.245
379.28	3.254
379.63	3.223
379.99	3.230
380.34	3.325
380.70	3.313
381.05	3.362
381.40	3.390
381.76	3.394
382.11	3.427
382.46	3.442
382.82	3.490
383.17	3.456
383.52	3.452
383.88	3.450
384.23	3.428
384.58	3.484
384.94	3.462
385.29	3.445
385.64	3.416
385.99	3.409
386.35	3.393
386.70	3.402
387.05	3.422
387.41	3.451
387.76	3.464
388.11	3.453
388.47	3.434
388.82	3.415
389.17	3.432
389.52	3.475
389.88	3.496
390.23	3.515
390.58	3.487
390.93	3.481
391.29	3.480
391.64	3.463
391.99	3.462
392.34	3.458
392.70	3.453
393.05	3.440
393.40	3.435
393.75	3.449
394.11	3.476
394.46	3.475
394.81	3.490
395.16	3.459
395.52	3.447
395.87	3.475
396.22	3.520
396.57	3.609
396.92	3.636
397.28	3.639
397.63	3.609
397.98	3.596
398.33	3.655
398.68	3.644
399.04	3.663
399.39	3.692
399.74	3.650
400.09	3.606
400.44	3.564
400.80	3.533
401.15	3.544
401.50	3.569
401.85	3.581
402.20	3.548
402.55	3.560
402.90	3.570
403.26	3.546
403.61	3.577
403.96	3.581
404.31	3.603
404.66	3.611
405.01	3.609
405.36	3.627
405.72	3.634
406.07	3.632
406.42	3.651
406.77	3.687
407.12	3.712
407.47	3.717
407.82	3.738
408.17	3.712
408.53	3.732
408.88	3.731
409.23	3.674
409.58	3.641
409.93	3.645
410.28	3.635
410.63	3.603
410.98	3.568
411.33	3.580
411.68	3.576
412.03	3.568
412.38	3.572
412.73	3.583
413.09	3.599
413.44	3.604
413.79	3.602
414.14	3.588
414.49	3.573
414.84	3.586
415.19	3.564
415.54	3.554
415.89	3.552
416.24	3.534
416.59	3.506
416.94	3.489
417.29	3.490
417.64	3.488
417.99	3.489
418.34	3.504
418.69	3.513
419.04	3.512
419.39	3.520
419.74	3.526
420.09	3.536
420.44	3.551
420.79	3.573
421.14	3.581
421.49	3.595
421.84	3.609
422.19	3.599
422.54	3.603
422.89	3.621
423.24	3.624
423.59	3.630
423.94	3.640
424.29	3.654
424.64	3.661
424.99	3.666
425.34	3.676
425.68	3.698
426.03	3.740
426.38	3.746
426.73	3.759
427.08	3.777
427.43	3.801
427.78	3.805
428.13	3.795
428.48	3.802
428.83	3.817
429.18	3.811
429.53	3.789
429.87	3.778
430.22	3.781
430.57	3.784
430.92	3.775
431.27	3.770
431.62	3.774
431.97	3.794
432.32	3.802
432.67	3.807
433.01	3.825
433.36	3.831
433.71	3.847
434.06	3.839
434.41	3.844
434.76	3.854
435.11	3.873
435.45	3.880
435.80	3.878
436.15	3.884
436.50	3.889
436.85	3.875
437.20	3.888
437.54	3.871
437.89	3.881
438.24	3.882
438.59	3.895
438.94	3.881
439.29	3.883
439.63	3.876
439.98	3.863
440.33	3.852
440.68	3.863
441.03	3.863
441.37	3.889
441.72	3.907
442.07	3.915
442.42	3.910
442.76	3.912
443.11	3.918
443.46	3.924
443.81	3.938
444.16	3.950
444.50	3.949
444.85	3.947
445.20	3.943
445.55	3.943
445.89	3.944
446.24	3.957
446.59	3.987
446.94	3.996
447.28	4.017
447.63	4.049
447.98	4.086
448.32	4.113
448.67	4.143
449.02	4.150
449.37	4.165
449.71	4.174
450.06	4.173
450.41	4.173
450.75	4.189
451.10	4.197
451.45	4.193
451.79	4.189
452.14	4.192
452.49	4.182
452.84	4.197
453.18	4.208
453.53	4.207
453.88	4.220
454.22	4.196
454.57	4.198
454.92	4.200
455.26	4.182
455.61	4.167
455.95	4.158
456.30	4.168
456.65	4.168
456.99	4.156
457.34	4.163
457.69	4.174
458.03	4.194
458.38	4.203
458.73	4.208
459.07	4.216
459.42	4.229
459.76	4.254
460.11	4.276
460.46	4.302
460.80	4.319
461.15	4.356
461.49	4.371
461.84	4.396
462.19	4.406
462.53	4.424
462.88	4.445
463.22	4.455
463.57	4.462
463.91	4.461
464.26	4.463
464.61	4.476
464.95	4.470
465.30	4.478
465.64	4.473
465.99	4.487
466.33	4.487
466.68	4.506
467.02	4.524
467.37	4.531
467.71	4.534
468.06	4.548
468.41	4.564
468.75	4.567
469.10	4.563
469.44	4.569
469.79	4.566
470.13	4.577
470.48	4.577
470.82	4.588
471.17	4.603
471.51	4.606
471.86	4.601
472.20	4.606
472.55	4.607
472.89	4.619
473.23	4.638
473.58	4.646
473.92	4.633
474.27	4.638
474.61	4.637
474.96	4.634
475.30	4.656
475.65	4.656
475.99	4.663
476.34	4.670
476.68	4.669
477.02	4.664
477.37	4.659
477.71	4.687
478.06	4.682
478.40	4.666
478.75	4.669
479.09	4.683
479.43	4.750
479.78	4.848
480.12	4.957
480.47	5.061
480.81	5.171
481.15	5.287
481.50	5.392
481.84	5.524
482.19	5.672
482.53	5.817
482.87	5.928
483.22	5.968
483.56	5.937
483.90	5.866
484.25	5.772
484.59	5.655
484.94	5.524
485.28	5.389
485.62	5.227
485.97	5.065
486.31	4.902
486.65	4.774
487.00	4.685
487.34	4.636
487.68	4.624
488.03	4.633
488.37	4.645
488.71	4.673
489.06	4.696
489.40	4.722
489.74	4.733
490.09	4.765
490.43	4.791
490.77	4.817
491.11	4.846
491.46	4.867
491.80	4.874
492.14	4.899
492.49	4.899
492.83	4.914
493.17	4.922
493.51	4.948
493.86	4.949
494.20	4.960
494.54	4.973
494.88	4.977
495.23	4.983
495.57	4.996
495.91	5.007
496.25	5.012
496.60	5.019
496.94	5.050
497.28	5.062
497.62	5.084
497.97	5.093
498.31	5.105
498.65	5.128
498.99	5.134
499.33	5.147
499.68	5.148
500.02	5.169
500.36	5.185
500.70	5.189
501.04	5.194
501.39	5.210
501.73	5.227
502.07	5.239
502.41	5.226
502.75	5.233
503.09	5.245
503.44	5.246
503.78	5.263
504.12	5.260
504.46	5.268
504.80	5.275
505.14	5.274
505.49	5.278
505.83	5.275
506.17	5.283
506.51	5.288
506.85	5.281
507.19	5.294
507.53	5.288
507.87	5.299
508.22	5.297
508.56	5.311
508.90	5.310
509.24	5.317
509.58	5.334
509.92	5.359
510.26	5.385
510.60	5.413
510.94	5.418
511.28	5.437
511.63	5.461
511.97	5.484
512.31	5.500
512.65	5.529
512.99	5.542
513.33	5.549
513.67	5.554
514.01	5.562
514.35	5.563
514.69	5.562
515.03	5.556
515.37	5.546
515.71	5.554
516.05	5.549
516.39	5.559
516.73	5.559
517.07	5.577
517.41	5.592
517.75	5.594
518.09	5.604
518.43	5.640
518.77	5.670
519.11	5.692
519.45	5.700
519.79	5.726
520.13	5.725
520.47	5.752
520.81	5.759
521.15	5.754
521.49	5.759
521.83	5.768
522.17	5.761
522.51	5.756
522.85	5.753
523.19	5.753
523.53	5.767
523.87	5.782
524.21	5.806
524.55	5.861
524.89	5.932
525.23	6.002
525.57	6.063
525.91	6.133
526.25	6.196
526.58	6.266
526.92	6.338
527.26	6.372
527.60	6.378
527.94	6.350
528.28	6.271
528.62	6.164
528.96	6.055
529.30	6.006
529.64	5.946
529.97	5.890
530.31	5.821
530.65	5.751
530.99	5.709
531.33	5.711
531.67	5.732
532.01	5.803
532.35	5.895
532.68	5.982
533.02	5.990
533.36	6.006
533.70	6.007
534.04	6.036
534.38	6.046
534.71	6.052
535.05	6.064
535.39	6.085
535.73	6.082
536.07	6.089
536.41	6.102
536.74	6.115
537.08	6.128
537.42	6.143
537.76	6.140
538.10	6.145
538.43	6.171
538.77	6.182
539.11	6.186
539.45	6.200
539.79	6.209
540.12	6.212
540.46	6.228
540.80	6.226
541.14	6.239
541.47	6.243
541.81	6.249
542.15	6.250
542.49	6.249
542.82	6.265
543.16	6.273
543.50	6.281
543.84	6.282
544.17	6.292
544.51	6.308
544.85	6.310
545.18	6.322
545.52	6.341
545.86	6.357
546.20	6.388
546.53	6.405
546.87	6.420
547.21	6.443
547.54	6.474
547.88	6.495
548.22	6.519
548.55	6.552
548.89	6.598
549.23	6.608
549.56	6.624
549.90	6.630
550.24	6.641
550.57	6.652
550.91	6.663
551.25	6.661
551.58	6.669
551.92	6.692
552.26	6.707
552.59	6.699
552.93	6.716
553.27	6.735
553.60	6.759
553.94	6.782
554.27	6.786
554.61	6.812
554.95	6.842
555.28	6.851
555.62	6.839
555.95	6.840
556.29	6.859
556.63	6.888
556.96	6.897
557.30	6.902
557.63	6.898
557.97	6.934
558.31	6.950
558.64	6.968
558.98	6.985
559.31	7.013
559.65	7.032
559.98	7.043
560.32	7.050
560.65	7.048
560.99	7.037
561.33	7.040
561.66	7.039
562.00	7.043
562.33	7.043
562.67	7.036
563.00	7.045
563.34	7.052
563.67	7.042
564.01	7.022
564.34	7.038
564.68	7.046
565.01	7.051
565.35	7.051
565.68	7.046
566.02	7.044
566.35	7.052
566.69	7.037
567.02	7.022
567.36	7.020
567.69	7.030
568.03	7.026
568.36	7.043
568.69	7.034
569.03	7.029
569.36	7.035
569.70	7.043
570.03	7.031
570.37	7.032
570.70	7.041
571.04	7.049
571.37	7.067
571.70	7.076
572.04	7.069
572.37	7.088
572.71	7.100
573.04	7.091
573.37	7.099
573.71	7.129
574.04	7.150
574.38	7.175
574.71	7.196
575.04	7.194
575.38	7.186
575.71	7.217
576.05	7.235
576.38	7.256
576.71	7.284
577.05	7.293
577.38	7.292
577.71	7.330
578.05	7.346
578.38	7.358
578.71	7.375
579.05	7.405
579.38	7.388
579.71	7.408
580.05	7.433
580.38	7.444
580.71	7.453
581.05	7.483
581.38	7.476
581.71	7.472
582.05	7.491
582.38	7.503
582.71	7.517
583.04	7.542
583.38	7.550
583.71	7.525
584.04	7.560
584.38	7.583
584.71	7.603
585.04	7.591
585.37	7.586
585.71	7.593
586.04	7.610
586.37	7.619
586.70	7.637
587.04	7.646
587.37	7.671
587.70	7.652
588.03	7.658
588.37	7.652
588.70	7.700
589.03	7.718
589.36	7.732
589.69	7.733
590.03	7.756
590.36	7.772
590.69	7.779
591.02	7.780
591.35	7.780
591.69	7.787
592.02	7.786
592.35	7.750
592.68	7.752
593.01	7.733
593.35	7.730
593.68	7.719
594.01	7.689
594.34	7.662
594.67	7.666
595.00	7.663
595.34	7.675
595.67	7.687
596.00	7.703
596.33	7.726
596.66	7.770
596.99	7.792
597.32	7.794
597.65	7.812
597.99	7.870
598.32	7.875
598.65	7.939
598.98	7.954
599.31	7.959
599.64	7.975
599.97	7.973
600.30	7.938
600.63	7.937
600.96	7.938
601.30	7.929
601.63	7.902
601.96	7.898
602.29	7.869
602.62	7.859
602.95	7.872
603.28	7.877
603.61	7.903
603.94	7.918
604.27	7.931
604.60	7.954
604.93	7.983
605.26	7.999
605.59	8.012
605.92	8.039
606.25	8.053
606.58	8.063
606.91	8.058
607.24	8.036
607.57	8.055
607.90	8.067
608.23	8.070
608.56	8.099
608.89	8.142
609.22	8.174
609.55	8.177
609.88	8.202
610.21	8.233
610.54	8.298
610.87	8.349
611.20	8.399
611.53	8.452
611.86	8.484
612.19	8.498
612.52	8.491
612.85	8.524
613.18	8.556
613.51	8.579
613.84	8.588
614.17	8.599
614.49	8.588
614.82	8.573
615.15	8.582
615.48	8.581
615.81	8.602
616.14	8.606
616.47	8.606
616.80	8.610
617.13	8.604
617.46	8.618
617.78	8.622
618.11	8.633
618.44	8.673
618.77	8.672
619.10	8.695
619.43	8.712
619.76	8.731
620.09	8.735
620.41	8.748
620.74	8.775
621.07	8.809
621.40	8.800
621.73	8.851
622.06	8.834
622.38	8.855
622.71	8.898
623.04	8.905
623.37	8.911
623.70	8.934
624.02	8.935
624.35	8.927
624.68	8.906
625.01	8.901
625.34	8.883
625.66	8.880
625.99	8.874
626.32	8.883
626.65	8.875
626.98	8.914
627.30	8.930
627.63	8.961
627.96	8.990
628.29	9.030
628.61	9.078
628.94	9.086
629.27	9.123
629.60	9.159
629.92	9.165
630.25	9.210
630.58	9.200
630.91	9.185
631.23	9.201
631.56	9.242
631.89	9.236
632.21	9.252
632.54	9.299
632.87	9.293
633.19	9.281
633.52	9.300
633.85	9.336
634.18	9.370
634.50	9.412
634.83	9.405
635.16	9.397
635.48	9.413
635.81	9.418
636.14	9.420
636.46	9.418
636.79	9.464
637.11	9.454
637.44	9.456
637.77	9.468
638.09	9.495
638.42	9.533
638.75	9.523
639.07	9.530
639.40	9.559
639.73	9.585
640.05	9.651
640.38	9.629
640.70	9.649
641.03	9.651
641.36	9.690
641.68	9.729
642.01	9.723
642.33	9.716
642.66	9.733
642.98	9.738
643.31	9.742
643.64	9.743
643.96	9.758
644.29	9.784
644.61	9.809
644.94	9.773
645.26	9.759
645.59	9.789
645.91	9.813
646.24	9.846
646.56	9.807
646.89	9.804
647.22	9.793
647.54	9.792
647.87	9.785
648.19	9.750
648.52	9.752
648.84	9.732
649.17	9.738
649.49	9.771
649.82	9.776
650.14	9.842
650.47	9.865
650.79	9.937
651.11	9.954
651.44	9.997
651.76	10.044
652.09	10.096
652.41	10.143
652.74	10.144
653.06	10.195
653.39	10.207
653.71	10.233
654.04	10.230
654.36	10.188
654.68	10.177
655.01	10.142
655.33	10.143
655.66	10.098
655.98	10.085
656.30	10.078
656.63	10.025
656.95	10.010
657.28	10.021
657.60	10.012
657.92	10.033
658.25	10.049
658.57	10.094
658.90	10.121
659.22	10.187
