OOIBase32 Version 2.0.0.6 Data File
++++++++++++++++++++++++++++++++++++
Date: 01-19-2012, 15:43:01
User: Valued Ocean Optics Customer
Spectrometer Serial Number: USB2E2917
Spectrometer Channel: Master
Integration Time (msec): 5
Spectra Averaged: 10
Boxcar Smoothing: 5
Correct for Electrical Dark: Enabled
Time Normalized: Disabled
Dual-beam Reference: Disabled
Reference Channel: Master
Temperature: Not acquired
Spectrometer Type: S2000
ADC Type: USB2000
Number of Pixels in File: 2048
Graph Title: 
>>>>>Begin Spectral Data<<<<<
180.30	0.000
180.67	0.000
181.03	-432.258
181.40	-175.510
181.77	-38.007
182.14	-5.032
182.51	79.686
182.88	27.220
183.25	-179.613
183.62	94.279
183.99	-7956.250
184.36	518.066
184.73	-274.979
185.10	-226.897
185.46	-61.730
185.83	169.302
186.20	149.115
186.57	-23.502
186.94	-153.253
187.31	-1.335
187.68	48.242
188.05	-22.832
188.42	-29.182
188.78	-27.444
189.15	32.655
189.52	25.898
189.89	23.357
190.26	-13.560
190.63	-5.711
191.00	-6.578
191.37	-8.025
191.73	-26.363
192.10	0.341
192.47	-2.683
192.84	6.827
193.21	-10.412
193.58	-12.300
193.94	-11.450
194.31	3.019
194.68	2.173
195.05	8.108
195.42	20.998
195.79	30.435
196.15	33.363
196.52	15.017
196.89	1.473
197.26	-3.669
197.63	-32.718
198.00	-4.525
198.36	-24.653
198.73	-26.393
199.10	-53.565
199.47	-71.509
199.84	-66.570
200.20	-34.702
200.57	-7.897
200.94	2.427
201.31	5.619
201.68	43.453
202.04	32.800
202.41	51.006
202.78	36.865
203.15	27.681
203.51	20.497
203.88	13.159
204.25	0.427
204.62	1.221
204.98	8.809
205.35	5.932
205.72	-0.247
206.09	-6.156
206.46	-29.556
206.82	7.135
207.19	11.656
207.56	28.885
207.92	33.571
208.29	32.953
208.66	32.613
209.03	37.975
209.39	40.369
209.76	38.990
210.13	39.797
210.50	46.363
210.86	39.953
211.23	29.092
211.60	13.192
211.96	10.161
212.33	9.578
212.70	-21.275
213.07	-77.158
213.43	-88.826
213.80	-67.910
214.17	-67.878
214.53	-81.053
214.90	-101.638
215.27	-69.675
215.63	-49.356
216.00	-35.008
216.37	-29.014
216.74	-25.636
217.10	-15.749
217.47	-12.038
217.84	-14.030
218.20	-11.614
218.57	-7.837
218.94	-1.486
219.30	3.710
219.67	5.404
220.04	6.591
220.40	4.739
220.77	14.680
221.13	21.619
221.50	18.186
221.87	16.251
222.23	16.262
222.60	13.752
222.97	10.708
223.33	10.739
223.70	9.706
224.07	5.590
224.43	4.692
224.80	2.282
225.16	0.319
225.53	2.953
225.90	1.655
226.26	1.807
226.63	1.495
226.99	1.010
227.36	0.871
227.73	-0.102
228.09	1.245
228.46	2.514
228.82	2.860
229.19	3.677
229.56	2.520
229.92	3.998
230.29	3.325
230.65	5.025
231.02	3.783
231.38	3.787
231.75	3.506
232.12	2.134
232.48	0.136
232.85	1.432
233.21	1.980
233.58	3.116
233.94	2.858
234.31	3.234
234.68	1.179
235.04	2.634
235.41	3.026
235.77	3.974
236.14	4.834
236.50	7.064
236.87	4.904
237.23	2.987
237.60	2.922
237.96	2.032
238.33	3.840
238.69	3.627
239.06	3.072
239.42	3.183
239.79	2.656
240.15	2.154
240.52	1.126
240.88	2.117
241.25	2.881
241.61	2.354
241.98	2.218
242.34	1.316
242.71	1.930
243.07	2.859
243.44	3.049
243.80	3.242
244.17	3.361
244.53	3.805
244.90	4.034
245.26	4.133
245.63	4.304
245.99	4.602
246.36	4.710
246.72	4.524
247.09	4.239
247.45	3.787
247.81	4.153
248.18	4.646
248.54	4.726
248.91	3.978
249.27	3.771
249.64	3.455
250.00	3.670
250.36	3.587
250.73	3.678
251.09	3.196
251.46	3.533
251.82	2.982
252.19	2.320
252.55	2.055
252.91	2.581
253.28	1.962
253.64	2.164
254.01	2.114
254.37	2.027
254.73	2.521
255.10	2.990
255.46	3.073
255.83	3.322
256.19	3.535
256.55	3.371
256.92	3.373
257.28	3.611
257.65	3.737
258.01	3.717
258.37	3.967
258.74	3.826
259.10	3.887
259.46	3.894
259.83	3.669
260.19	3.263
260.55	3.267
260.92	2.823
261.28	2.779
261.64	2.726
262.01	2.455
262.37	2.139
262.73	1.981
263.10	1.995
263.46	1.468
263.82	1.666
264.19	1.811
264.55	1.916
264.91	2.240
265.28	2.187
265.64	2.342
266.00	2.385
266.37	2.478
266.73	3.042
267.09	2.777
267.46	3.045
267.82	3.057
268.18	3.497
268.54	3.542
268.91	3.424
269.27	3.489
269.63	3.490
270.00	3.830
270.36	3.858
270.72	3.413
271.08	3.373
271.45	3.516
271.81	3.636
272.17	3.627
272.53	3.881
272.90	4.400
273.26	4.472
273.62	4.571
273.98	4.431
274.35	4.157
274.71	4.176
275.07	3.925
275.43	3.948
275.80	3.756
276.16	3.494
276.52	3.434
276.88	3.317
277.25	3.502
277.61	3.313
277.97	3.314
278.33	3.406
278.69	3.215
279.06	3.507
279.42	3.464
279.78	3.551
280.14	3.879
280.50	3.575
280.87	3.447
281.23	3.376
281.59	3.447
281.95	3.646
282.31	3.873
282.68	3.919
283.04	3.887
283.40	3.727
283.76	3.598
284.12	3.632
284.48	3.784
284.85	3.789
285.21	3.978
285.57	4.050
285.93	3.731
286.29	3.857
286.65	3.917
287.02	4.038
287.38	4.259
287.74	4.434
288.10	4.295
288.46	4.418
288.82	4.390
289.18	3.962
289.54	3.866
289.91	4.014
290.27	3.896
290.63	3.835
290.99	3.861
291.35	3.705
291.71	3.799
292.07	3.892
292.43	3.923
292.79	3.811
293.16	3.939
293.52	4.165
293.88	4.288
294.24	4.147
294.60	4.222
294.96	4.323
295.32	4.349
295.68	4.118
296.04	4.129
296.40	4.084
296.76	4.221
297.12	4.149
297.49	3.902
297.85	3.895
298.21	3.969
298.57	4.109
298.93	3.987
299.29	3.959
299.65	4.048
300.01	3.836
300.37	3.761
300.73	3.755
301.09	3.715
301.45	3.739
301.81	3.451
302.17	3.488
302.53	3.534
302.89	3.537
303.25	3.686
303.61	3.834
303.97	4.169
304.33	4.265
304.69	4.480
305.05	4.653
305.41	4.660
305.77	4.713
306.13	4.540
306.49	4.261
306.85	4.159
307.21	3.957
307.57	3.880
307.93	3.746
308.29	3.483
308.65	3.344
309.01	3.293
309.37	3.378
309.73	3.411
310.09	3.530
310.45	3.630
310.81	3.842
311.17	3.887
311.53	3.636
311.89	3.592
312.25	3.791
312.61	3.864
312.96	3.920
313.32	3.732
313.68	3.789
314.04	3.729
314.40	3.693
314.76	3.418
315.12	3.428
315.48	3.540
315.84	3.468
316.20	3.435
316.56	3.392
316.92	3.320
317.27	3.297
317.63	3.022
317.99	2.889
318.35	2.797
318.71	2.779
319.07	2.776
319.43	2.800
319.79	2.807
320.15	2.865
320.50	2.758
320.86	2.780
321.22	3.104
321.58	3.238
321.94	3.279
322.30	3.289
322.66	3.385
323.01	3.402
323.37	3.410
323.73	3.492
324.09	3.369
324.45	3.404
324.81	3.413
325.17	3.282
325.52	3.232
325.88	3.163
326.24	3.195
326.60	3.170
326.96	3.036
327.31	3.004
327.67	2.944
328.03	3.087
328.39	3.082
328.75	3.111
329.11	2.992
329.46	3.196
329.82	3.292
330.18	3.269
330.54	3.188
330.90	3.307
331.25	3.360
331.61	3.310
331.97	3.183
332.33	3.204
332.68	3.302
333.04	3.397
333.40	3.357
333.76	3.302
334.11	3.419
334.47	3.533
334.83	3.484
335.19	3.626
335.54	3.566
335.90	3.540
336.26	3.476
336.62	3.292
336.97	3.270
337.33	3.280
337.69	3.394
338.05	3.266
338.40	3.141
338.76	3.255
339.12	3.155
339.48	3.216
339.83	3.268
340.19	3.303
340.55	3.421
340.90	3.527
341.26	3.407
341.62	3.389
341.97	3.461
342.33	3.602
342.69	3.597
343.04	3.667
343.40	3.587
343.76	3.541
344.12	3.513
344.47	3.427
344.83	3.377
345.19	3.428
345.54	3.417
345.90	3.459
346.26	3.329
346.61	3.283
346.97	3.215
347.32	3.288
347.68	3.270
348.04	3.270
348.39	3.380
348.75	3.234
349.11	3.159
349.46	3.136
349.82	2.953
350.18	2.999
350.53	3.033
350.89	3.056
351.24	3.183
351.60	3.259
351.96	3.282
352.31	3.180
352.67	3.269
353.02	3.356
353.38	3.352
353.74	3.533
354.09	3.547
354.45	3.561
354.80	3.556
355.16	3.503
355.52	3.547
355.87	3.585
356.23	3.731
356.58	3.776
356.94	3.763
357.29	3.759
357.65	3.809
358.00	3.840
358.36	3.841
358.72	3.902
359.07	3.934
359.43	3.879
359.78	3.908
360.14	3.813
360.49	3.708
360.85	3.727
361.20	3.772
361.56	3.753
361.91	3.736
362.27	3.668
362.62	3.625
362.98	3.587
363.33	3.564
363.69	3.499
364.04	3.483
364.40	3.510
364.75	3.482
365.11	3.438
365.46	3.474
365.82	3.463
366.17	3.514
366.53	3.526
366.88	3.491
367.24	3.542
367.59	3.581
367.95	3.569
368.30	3.630
368.66	3.686
369.01	3.691
369.37	3.627
369.72	3.663
370.08	3.721
370.43	3.766
370.78	3.882
371.14	3.882
371.49	3.912
371.85	3.978
372.20	3.943
372.56	3.968
372.91	4.023
373.26	3.995
373.62	3.978
373.97	3.969
374.33	3.941
374.68	3.881
375.03	3.829
375.39	3.838
375.74	3.818
376.10	3.866
376.45	3.851
376.80	3.866
377.16	3.894
377.51	3.967
377.87	3.970
378.22	4.019
378.57	4.095
378.93	4.265
379.28	4.296
379.63	4.349
379.99	4.443
380.34	4.483
380.70	4.547
381.05	4.629
381.40	4.624
381.76	4.660
382.11	4.658
382.46	4.650
382.82	4.636
383.17	4.625
383.52	4.678
383.88	4.609
384.23	4.572
384.58	4.515
384.94	4.498
385.29	4.506
385.64	4.478
385.99	4.469
386.35	4.486
386.70	4.465
387.05	4.477
387.41	4.441
387.76	4.432
388.11	4.493
388.47	4.562
388.82	4.584
389.17	4.581
389.52	4.640
389.88	4.724
390.23	4.727
390.58	4.778
390.93	4.844
391.29	4.879
391.64	4.916
391.99	4.923
392.34	4.877
392.70	4.882
393.05	4.899
393.40	4.811
393.75	4.713
394.11	4.683
394.46	4.649
394.81	4.576
395.16	4.515
395.52	4.459
395.87	4.344
396.22	4.255
396.57	4.110
396.92	4.037
397.28	3.995
397.63	3.918
397.98	3.833
398.33	3.752
398.68	3.675
399.04	3.610
399.39	3.550
399.74	3.540
400.09	3.568
400.44	3.655
400.80	3.614
401.15	3.631
401.50	3.713
401.85	3.731
402.20	3.733
402.55	3.754
402.90	3.767
403.26	3.812
403.61	3.831
403.96	3.814
404.31	3.742
404.66	3.772
405.01	3.765
405.36	3.718
405.72	3.688
406.07	3.625
406.42	3.596
406.77	3.567
407.12	3.562
407.47	3.568
407.82	3.583
408.17	3.593
408.53	3.588
408.88	3.577
409.23	3.529
409.58	3.537
409.93	3.570
410.28	3.557
410.63	3.521
410.98	3.486
411.33	3.435
411.68	3.437
412.03	3.424
412.38	3.430
412.73	3.459
413.09	3.501
413.44	3.560
413.79	3.637
414.14	3.712
414.49	3.850
414.84	3.899
415.19	4.018
415.54	4.050
415.89	4.117
416.24	4.199
416.59	4.271
416.94	4.333
417.29	4.371
417.64	4.386
417.99	4.380
418.34	4.402
418.69	4.421
419.04	4.424
419.39	4.444
419.74	4.471
420.09	4.470
420.44	4.472
420.79	4.460
421.14	4.445
421.49	4.431
421.84	4.432
422.19	4.382
422.54	4.374
422.89	4.342
423.24	4.296
423.59	4.264
423.94	4.209
424.29	4.125
424.64	4.077
424.99	4.002
425.34	3.935
425.68	3.879
426.03	3.820
426.38	3.748
426.73	3.686
427.08	3.670
427.43	3.612
427.78	3.590
428.13	3.594
428.48	3.601
428.83	3.634
429.18	3.674
429.53	3.702
429.87	3.724
430.22	3.725
430.57	3.704
430.92	3.696
431.27	3.660
431.62	3.650
431.97	3.628
432.32	3.580
432.67	3.533
433.01	3.482
433.36	3.443
433.71	3.405
434.06	3.412
434.41	3.416
434.76	3.419
435.11	3.441
435.45	3.464
435.80	3.489
436.15	3.539
436.50	3.582
436.85	3.611
437.20	3.632
437.54	3.677
437.89	3.677
438.24	3.682
438.59	3.673
438.94	3.648
439.29	3.623
439.63	3.604
439.98	3.574
440.33	3.539
440.68	3.504
441.03	3.479
441.37	3.434
441.72	3.426
442.07	3.438
442.42	3.451
442.76	3.495
443.11	3.510
443.46	3.531
443.81	3.542
444.16	3.570
444.50	3.586
444.85	3.553
445.20	3.540
445.55	3.502
445.89	3.459
446.24	3.395
446.59	3.304
446.94	3.207
447.28	3.097
447.63	3.002
447.98	2.896
448.32	2.801
448.67	2.747
449.02	2.688
449.37	2.643
449.71	2.601
450.06	2.571
450.41	2.584
450.75	2.621
451.10	2.624
451.45	2.630
451.79	2.628
452.14	2.635
452.49	2.629
452.84	2.598
453.18	2.587
453.53	2.592
453.88	2.595
454.22	2.618
454.57	2.622
454.92	2.687
455.26	2.728
455.61	2.783
455.95	2.847
456.30	2.935
456.65	3.042
456.99	3.115
457.34	3.161
457.69	3.220
458.03	3.242
458.38	3.267
458.73	3.257
459.07	3.237
459.42	3.206
459.76	3.159
460.11	3.083
460.46	3.029
460.80	2.942
461.15	2.902
461.49	2.835
461.84	2.784
462.19	2.769
462.53	2.765
462.88	2.787
463.22	2.799
463.57	2.826
463.91	2.883
464.26	2.894
464.61	2.953
464.95	2.977
465.30	3.024
465.64	3.042
465.99	3.035
466.33	3.038
466.68	3.023
467.02	3.006
467.37	2.994
467.71	2.960
468.06	2.960
468.41	2.947
468.75	2.943
469.10	2.894
469.44	2.855
469.79	2.829
470.13	2.815
470.48	2.788
470.82	2.773
471.17	2.754
471.51	2.748
471.86	2.706
472.20	2.677
472.55	2.632
472.89	2.609
473.23	2.582
473.58	2.551
473.92	2.516
474.27	2.500
474.61	2.499
474.96	2.477
475.30	2.472
475.65	2.448
475.99	2.444
476.34	2.448
476.68	2.451
477.02	2.483
477.37	2.505
477.71	2.563
478.06	2.636
478.40	2.754
478.75	2.938
479.09	3.132
479.43	3.364
479.78	3.574
480.12	3.766
480.47	3.942
480.81	4.093
481.15	4.252
481.50	4.373
481.84	4.487
482.19	4.594
482.53	4.677
482.87	4.734
483.22	4.757
483.56	4.760
483.90	4.750
484.25	4.740
484.59	4.716
484.94	4.674
485.28	4.625
485.62	4.568
485.97	4.497
486.31	4.420
486.65	4.367
487.00	4.322
487.34	4.289
487.68	4.263
488.03	4.225
488.37	4.197
488.71	4.186
489.06	4.178
489.40	4.165
489.74	4.161
490.09	4.150
490.43	4.121
490.77	4.089
491.11	4.038
491.46	3.985
491.80	3.937
492.14	3.908
492.49	3.850
492.83	3.790
493.17	3.760
493.51	3.709
493.86	3.684
494.20	3.672
494.54	3.714
494.88	3.790
495.23	3.868
495.57	3.979
495.91	4.085
496.25	4.184
496.60	4.312
496.94	4.405
497.28	4.520
497.62	4.622
497.97	4.753
498.31	4.853
498.65	4.962
498.99	5.108
499.33	5.247
499.68	5.401
500.02	5.564
500.36	5.735
500.70	5.914
501.04	6.098
501.39	6.315
501.73	6.514
502.07	6.742
502.41	6.971
502.75	7.223
503.09	7.482
503.44	7.748
503.78	8.036
504.12	8.315
504.46	8.637
504.80	8.967
505.14	9.284
505.49	9.606
505.83	9.926
506.17	10.277
506.51	10.567
506.85	10.881
507.19	11.189
507.53	11.484
507.87	11.805
508.22	12.108
508.56	12.402
508.90	12.694
509.24	13.009
509.58	13.303
509.92	13.596
510.26	13.913
510.60	14.203
510.94	14.506
511.28	14.822
511.63	15.117
511.97	15.406
512.31	15.716
512.65	16.071
512.99	16.422
513.33	16.813
513.67	17.234
514.01	17.677
514.35	18.110
514.69	18.515
515.03	18.921
515.37	19.320
515.71	19.741
516.05	20.084
516.39	20.407
516.73	20.678
517.07	20.971
517.41	21.214
517.75	21.417
518.09	21.642
518.43	21.846
518.77	22.020
519.11	22.162
519.45	22.310
519.79	22.492
520.13	22.670
520.47	22.937
520.81	23.183
521.15	23.453
521.49	23.766
521.83	24.071
522.17	24.381
522.51	24.746
522.85	25.173
523.19	25.625
523.53	26.149
523.87	26.699
524.21	27.208
524.55	27.691
524.89	28.084
525.23	28.495
525.57	28.851
525.91	29.165
526.25	29.456
526.58	29.712
526.92	29.932
527.26	30.089
527.60	30.207
527.94	30.283
528.28	30.340
528.62	30.421
528.96	30.471
529.30	30.511
529.64	30.569
529.97	30.595
530.31	30.605
530.65	30.619
530.99	30.683
531.33	30.753
531.67	30.833
532.01	30.902
532.35	30.981
532.68	31.015
533.02	31.029
533.36	31.038
533.70	31.044
534.04	31.054
534.38	31.071
534.71	31.027
535.05	30.997
535.39	30.972
535.73	31.001
536.07	31.012
536.41	31.088
536.74	31.261
537.08	31.443
537.42	31.617
537.76	31.812
538.10	32.035
538.43	32.296
538.77	32.512
539.11	32.734
539.45	32.915
539.79	33.072
540.12	33.197
540.46	33.258
540.80	33.272
541.14	33.298
541.47	33.293
541.81	33.242
542.15	33.170
542.49	33.110
542.82	33.001
543.16	32.874
543.50	32.775
543.84	32.635
544.17	32.543
544.51	32.490
544.85	32.411
545.18	32.393
545.52	32.342
545.86	32.284
546.20	32.235
546.53	32.177
546.87	32.134
547.21	32.051
547.54	31.989
547.88	31.914
548.22	31.858
548.55	31.834
548.89	31.751
549.23	31.739
549.56	31.738
549.90	31.703
550.24	31.740
550.57	31.760
550.91	31.768
551.25	31.846
551.58	31.891
551.92	31.883
552.26	31.908
552.59	31.945
552.93	31.945
553.27	31.922
553.60	31.900
553.94	31.844
554.27	31.849
554.61	31.857
554.95	31.825
555.28	31.763
555.62	31.790
555.95	31.787
556.29	31.741
556.63	31.711
556.96	31.718
557.30	31.744
557.63	31.762
557.97	31.721
558.31	31.719
558.64	31.748
558.98	31.771
559.31	31.757
559.65	31.733
559.98	31.781
560.32	31.804
560.65	31.855
560.99	31.880
561.33	31.968
561.66	32.014
562.00	32.045
562.33	32.051
562.67	32.090
563.00	32.132
563.34	32.209
563.67	32.231
564.01	32.294
564.34	32.301
564.68	32.329
565.01	32.259
565.35	32.274
565.68	32.269
566.02	32.293
566.35	32.264
566.69	32.249
567.02	32.187
567.36	32.152
567.69	32.102
568.03	32.113
568.36	32.091
568.69	32.127
569.03	32.101
569.36	32.101
569.70	32.082
570.03	32.106
570.37	32.120
570.70	32.118
571.04	32.112
571.37	32.098
571.70	32.059
572.04	32.052
572.37	32.008
572.71	31.979
573.04	31.956
573.37	31.896
573.71	31.872
574.04	31.809
574.38	31.745
574.71	31.692
575.04	31.615
575.38	31.524
575.71	31.411
576.05	31.333
576.38	31.241
576.71	31.105
577.05	31.014
577.38	30.869
577.71	30.757
578.05	30.673
578.38	30.548
578.71	30.459
579.05	30.382
579.38	30.301
579.71	30.213
580.05	30.125
580.38	30.084
580.71	29.973
581.05	29.923
581.38	29.843
581.71	29.760
582.05	29.707
582.38	29.694
582.71	29.648
583.04	29.600
583.38	29.571
583.71	29.575
584.04	29.524
584.38	29.513
584.71	29.460
585.04	29.465
585.37	29.485
585.71	29.516
586.04	29.478
586.37	29.471
586.70	29.467
587.04	29.455
587.37	29.408
587.70	29.391
588.03	29.397
588.37	29.386
588.70	29.373
589.03	29.287
589.36	29.233
589.69	29.198
590.03	29.162
590.36	29.114
590.69	29.084
591.02	29.048
591.35	29.065
591.69	29.007
592.02	28.976
592.35	28.916
592.68	28.947
593.01	28.937
593.35	28.926
593.68	28.890
594.01	28.879
594.34	28.863
594.67	28.838
595.00	28.798
595.34	28.796
595.67	28.798
596.00	28.749
596.33	28.704
596.66	28.628
596.99	28.536
597.32	28.457
597.65	28.392
597.99	28.300
598.32	28.177
598.65	28.050
598.98	27.945
599.31	27.854
599.64	27.794
599.97	27.747
600.30	27.723
600.63	27.720
600.96	27.746
601.30	27.716
601.63	27.710
601.96	27.754
602.29	27.768
602.62	27.763
602.95	27.723
603.28	27.725
603.61	27.685
603.94	27.698
604.27	27.613
604.60	27.558
604.93	27.539
605.26	27.455
605.59	27.406
605.92	27.348
606.25	27.302
606.58	27.283
606.91	27.243
607.24	27.176
607.57	27.088
607.90	27.098
608.23	27.008
608.56	26.971
608.89	26.965
609.22	26.884
609.55	26.818
609.88	26.708
610.21	26.579
610.54	26.452
610.87	26.387
611.20	26.242
611.53	26.122
611.86	26.082
612.19	25.940
612.52	25.828
612.85	25.757
613.18	25.693
613.51	25.622
613.84	25.626
614.17	25.588
614.49	25.514
614.82	25.491
615.15	25.442
615.48	25.382
615.81	25.353
616.14	25.310
616.47	25.244
616.80	25.173
617.13	25.163
617.46	25.094
617.78	25.023
618.11	24.990
618.44	24.921
618.77	24.891
619.10	24.847
619.43	24.806
619.76	24.741
620.09	24.715
620.41	24.697
620.74	24.650
621.07	24.639
621.40	24.628
621.73	24.613
622.06	24.667
622.38	24.611
622.71	24.552
623.04	24.545
623.37	24.594
623.70	24.621
624.02	24.644
624.35	24.651
624.68	24.624
625.01	24.666
625.34	24.668
625.66	24.619
625.99	24.656
626.32	24.660
626.65	24.575
626.98	24.499
627.30	24.425
627.63	24.322
627.96	24.272
628.29	24.224
628.61	24.128
628.94	24.014
629.27	23.955
629.60	23.830
629.92	23.788
630.25	23.756
630.58	23.764
630.91	23.727
631.23	23.721
631.56	23.661
631.89	23.585
632.21	23.527
632.54	23.537
632.87	23.488
633.19	23.436
633.52	23.367
633.85	23.321
634.18	23.212
634.50	23.170
634.83	23.102
635.16	23.081
635.48	23.045
635.81	22.961
636.14	22.884
636.46	22.854
636.79	22.799
637.11	22.728
637.44	22.683
637.77	22.650
638.09	22.654
638.42	22.586
638.75	22.464
639.07	22.413
639.40	22.412
639.73	22.386
640.05	22.311
640.38	22.313
640.70	22.317
641.03	22.251
641.36	22.188
641.68	22.136
642.01	22.132
642.33	22.183
642.66	22.161
642.98	22.122
643.31	22.085
643.64	22.064
643.96	22.021
644.29	21.988
644.61	22.056
644.94	22.054
645.26	22.020
645.59	22.039
645.91	22.060
646.24	22.037
646.56	22.045
646.89	21.979
647.22	21.999
647.54	22.080
647.87	22.087
648.19	22.048
648.52	22.057
648.84	21.971
649.17	21.953
649.49	21.857
649.82	21.860
