OOIBase32 Version 2.0.0.6 Data File
++++++++++++++++++++++++++++++++++++
Date: 01-19-2012, 17:18:49
User: Valued Ocean Optics Customer
Spectrometer Serial Number: USB2E2917
Spectrometer Channel: Master
Integration Time (msec): 6
Spectra Averaged: 10
Boxcar Smoothing: 5
Correct for Electrical Dark: Enabled
Time Normalized: Disabled
Dual-beam Reference: Disabled
Reference Channel: Master
Temperature: Not acquired
Spectrometer Type: S2000
ADC Type: USB2000
Number of Pixels in File: 2048
Graph Title: 
>>>>>Begin Spectral Data<<<<<
180.30	0.000
180.67	0.000
181.03	98.251
181.40	33.308
181.77	63.656
182.14	-163.222
182.51	-34.585
182.88	148.408
183.25	74.352
183.62	61.639
183.99	127.227
184.36	74.930
184.73	-1.541
185.10	103.746
185.46	69.303
185.83	40.253
186.20	-119.874
186.57	15.803
186.94	48.495
187.31	109.258
187.68	113.694
188.05	100.015
188.42	72.450
188.78	61.097
189.15	55.687
189.52	49.160
189.89	39.266
190.26	31.202
190.63	30.286
191.00	33.718
191.37	32.189
191.73	26.349
192.10	10.984
192.47	15.317
192.84	26.244
193.21	33.340
193.58	27.906
193.94	35.633
194.31	32.127
194.68	36.636
195.05	20.251
195.42	6.561
195.79	19.691
196.15	39.066
196.52	24.227
196.89	16.744
197.26	3.651
197.63	-1.810
198.00	-5.710
198.36	-4.283
198.73	-17.623
199.10	-11.920
199.47	-9.752
199.84	-25.375
200.20	-32.823
200.57	-50.172
200.94	-34.558
201.31	-29.370
201.68	-13.035
202.04	-26.365
202.41	-26.884
202.78	-29.961
203.15	-19.408
203.51	-16.301
203.88	-12.981
204.25	-4.879
204.62	0.981
204.98	-12.204
205.35	1.086
205.72	-17.739
206.09	-9.727
206.46	10.853
206.82	8.264
207.19	1.141
207.56	-11.260
207.92	-8.926
208.29	-45.199
208.66	-42.712
209.03	-29.215
209.39	-49.272
209.76	-25.940
210.13	-10.614
210.50	-5.281
210.86	3.662
211.23	2.299
211.60	10.794
211.96	16.587
212.33	27.687
212.70	22.290
213.07	21.119
213.43	18.694
213.80	9.096
214.17	0.288
214.53	-14.594
214.90	-14.206
215.27	-9.038
215.63	-6.410
216.00	-4.264
216.37	-8.363
216.74	0.216
217.10	-3.761
217.47	1.090
217.84	9.210
218.20	13.455
218.57	15.788
218.94	13.572
219.30	5.567
219.67	6.070
220.04	-1.181
220.40	-1.929
220.77	-7.039
221.13	-3.487
221.50	-4.835
221.87	-6.166
222.23	-1.739
222.60	-0.639
222.97	0.391
223.33	6.504
223.70	4.505
224.07	4.266
224.43	5.606
224.80	5.863
225.16	6.077
225.53	6.359
225.90	6.401
226.26	4.140
226.63	2.906
226.99	4.442
227.36	2.999
227.73	1.927
228.09	2.055
228.46	2.231
228.82	2.561
229.19	2.550
229.56	2.663
229.92	2.699
230.29	3.796
230.65	4.485
231.02	2.693
231.38	3.943
231.75	4.501
232.12	6.289
232.48	6.333
232.85	7.085
233.21	6.894
233.58	6.010
233.94	5.313
234.31	4.789
234.68	4.182
235.04	4.211
235.41	3.140
235.77	3.363
236.14	2.188
236.50	1.667
236.87	1.246
237.23	1.900
237.60	1.846
237.96	1.878
238.33	2.083
238.69	2.373
239.06	2.025
239.42	2.029
239.79	2.310
240.15	2.612
240.52	2.768
240.88	2.880
241.25	2.685
241.61	3.133
241.98	2.653
242.34	2.455
242.71	2.448
243.07	2.307
243.44	2.497
243.80	2.579
244.17	2.260
244.53	2.225
244.90	2.076
245.26	1.888
245.63	1.716
245.99	1.878
246.36	2.015
246.72	1.883
247.09	2.049
247.45	2.065
247.81	1.861
248.18	1.950
248.54	1.744
248.91	1.727
249.27	1.485
249.64	1.301
250.00	1.330
250.36	1.236
250.73	1.033
251.09	1.175
251.46	1.101
251.82	1.271
252.19	1.457
252.55	1.882
252.91	2.028
253.28	2.404
253.64	2.426
254.01	2.643
254.37	2.475
254.73	2.795
255.10	2.208
255.46	2.181
255.83	2.024
256.19	1.966
256.55	1.976
256.92	1.931
257.28	1.850
257.65	1.684
258.01	1.604
258.37	1.697
258.74	1.672
259.10	1.825
259.46	1.746
259.83	1.776
260.19	1.774
260.55	1.589
260.92	1.433
261.28	1.479
261.64	1.651
262.01	1.895
262.37	1.717
262.73	1.939
263.10	1.853
263.46	1.947
263.82	1.824
264.19	1.515
264.55	1.587
264.91	1.691
265.28	1.859
265.64	2.096
266.00	1.768
266.37	1.655
266.73	1.505
267.09	1.596
267.46	1.449
267.82	1.687
268.18	1.758
268.54	1.717
268.91	1.781
269.27	1.611
269.63	1.203
270.00	1.336
270.36	1.317
270.72	1.384
271.08	1.338
271.45	1.482
271.81	1.411
272.17	1.674
272.53	1.686
272.90	1.487
273.26	1.424
273.62	1.437
273.98	1.497
274.35	1.716
274.71	1.567
275.07	1.565
275.43	1.495
275.80	1.522
276.16	1.500
276.52	1.737
276.88	1.770
277.25	1.693
277.61	1.997
277.97	1.865
278.33	1.768
278.69	1.688
279.06	1.572
279.42	1.537
279.78	1.465
280.14	1.333
280.50	1.330
280.87	1.452
281.23	1.588
281.59	1.454
281.95	1.531
282.31	1.628
282.68	1.699
283.04	1.651
283.40	1.669
283.76	1.735
284.12	1.837
284.48	1.791
284.85	1.679
285.21	1.625
285.57	1.732
285.93	1.547
286.29	1.305
286.65	1.416
287.02	1.646
287.38	1.659
287.74	1.639
288.10	1.618
288.46	1.651
288.82	1.950
289.18	2.117
289.54	2.143
289.91	2.468
290.27	2.697
290.63	2.793
290.99	2.789
291.35	2.858
291.71	2.829
292.07	2.751
292.43	2.633
292.79	2.485
293.16	2.446
293.52	2.348
293.88	2.352
294.24	2.519
294.60	2.613
294.96	2.692
295.32	2.730
295.68	2.874
296.04	3.134
296.40	3.217
296.76	3.341
297.12	3.489
297.49	3.749
297.85	3.979
298.21	4.243
298.57	4.315
298.93	4.299
299.29	4.464
299.65	4.612
300.01	4.809
300.37	5.315
300.73	5.669
301.09	5.906
301.45	6.021
301.81	6.134
302.17	6.159
302.53	6.143
302.89	6.486
303.25	6.727
303.61	6.966
303.97	7.224
304.33	7.298
304.69	7.339
305.05	7.781
305.41	8.234
305.77	8.732
306.13	8.997
306.49	9.415
306.85	9.660
307.21	9.980
307.57	10.210
307.93	10.328
308.29	10.596
308.65	10.793
309.01	10.815
309.37	10.915
309.73	10.800
310.09	10.932
310.45	11.166
310.81	11.314
311.17	11.575
311.53	11.734
311.89	11.730
312.25	11.796
312.61	12.090
312.96	12.155
313.32	12.320
313.68	12.472
314.04	12.507
314.40	12.455
314.76	12.650
315.12	12.518
315.48	12.596
315.84	12.681
316.20	12.721
316.56	12.582
316.92	12.773
317.27	12.659
317.63	12.722
317.99	12.866
318.35	12.976
318.71	12.842
319.07	12.796
319.43	12.774
319.79	12.818
320.15	12.781
320.50	12.914
320.86	12.767
321.22	12.824
321.58	12.769
321.94	12.748
322.30	12.648
322.66	12.676
323.01	12.790
323.37	12.789
323.73	12.767
324.09	12.638
324.45	12.371
324.81	12.366
325.17	12.257
325.52	12.228
325.88	12.142
326.24	12.170
326.60	12.136
326.96	12.003
327.31	11.866
327.67	11.864
328.03	11.964
328.39	12.104
328.75	12.159
329.11	12.097
329.46	12.099
329.82	12.029
330.18	12.022
330.54	11.954
330.90	11.963
331.25	11.952
331.61	12.018
331.97	11.952
332.33	11.840
332.68	11.659
333.04	11.656
333.40	11.603
333.76	11.746
334.11	11.629
334.47	11.661
334.83	11.682
335.19	11.702
335.54	11.582
335.90	11.675
336.26	11.774
336.62	11.698
336.97	11.696
337.33	11.671
337.69	11.581
338.05	11.588
338.40	11.494
338.76	11.301
339.12	11.187
339.48	11.088
339.83	11.036
340.19	10.968
340.55	11.018
340.90	10.952
341.26	10.983
341.62	10.863
341.97	10.835
342.33	10.775
342.69	10.851
343.04	10.928
343.40	11.034
343.76	10.900
344.12	10.859
344.47	10.680
344.83	10.705
345.19	10.618
345.54	10.684
345.90	10.645
346.26	10.634
346.61	10.576
346.97	10.505
347.32	10.327
347.68	10.369
348.04	10.294
348.39	10.401
348.75	10.281
349.11	10.245
349.46	10.165
349.82	10.147
350.18	10.104
350.53	10.121
350.89	10.065
351.24	10.123
351.60	10.050
351.96	9.943
352.31	9.932
352.67	9.966
353.02	9.973
353.38	9.925
353.74	9.866
354.09	9.818
354.45	9.760
354.80	9.727
355.16	9.721
355.52	9.688
355.87	9.707
356.23	9.639
356.58	9.590
356.94	9.502
357.29	9.439
357.65	9.420
358.00	9.398
358.36	9.377
358.72	9.349
359.07	9.216
359.43	9.153
359.78	9.103
360.14	9.058
360.49	9.053
360.85	9.000
361.20	9.027
361.56	8.973
361.91	8.941
362.27	8.870
362.62	8.865
362.98	8.941
363.33	8.938
363.69	8.909
364.04	8.884
364.40	8.829
364.75	8.827
365.11	8.763
365.46	8.777
365.82	8.788
366.17	8.783
366.53	8.713
366.88	8.603
367.24	8.584
367.59	8.570
367.95	8.570
368.30	8.555
368.66	8.496
369.01	8.491
369.37	8.451
369.72	8.395
370.08	8.314
370.43	8.308
370.78	8.313
371.14	8.271
371.49	8.251
371.85	8.215
372.20	8.134
372.56	8.147
372.91	8.042
373.26	7.999
373.62	7.948
373.97	7.944
374.33	7.859
374.68	7.798
375.03	7.687
375.39	7.619
375.74	7.592
376.10	7.606
376.45	7.531
376.80	7.515
377.16	7.467
377.51	7.432
377.87	7.361
378.22	7.372
378.57	7.362
378.93	7.369
379.28	7.376
379.63	7.327
379.99	7.259
380.34	7.266
380.70	7.233
381.05	7.229
381.40	7.241
381.76	7.236
382.11	7.159
382.46	7.139
382.82	7.115
383.17	7.023
383.52	6.966
383.88	6.964
384.23	6.890
384.58	6.887
384.94	6.837
385.29	6.796
385.64	6.721
385.99	6.705
386.35	6.624
386.70	6.565
387.05	6.565
387.41	6.533
387.76	6.470
388.11	6.469
388.47	6.411
388.82	6.363
389.17	6.293
389.52	6.272
389.88	6.221
390.23	6.183
390.58	6.144
390.93	6.062
391.29	6.019
391.64	5.952
391.99	5.864
392.34	5.816
392.70	5.765
393.05	5.713
393.40	5.682
393.75	5.656
394.11	5.625
394.46	5.552
394.81	5.504
395.16	5.440
395.52	5.418
395.87	5.387
396.22	5.369
396.57	5.379
396.92	5.347
397.28	5.303
397.63	5.256
397.98	5.178
398.33	5.174
398.68	5.148
399.04	5.139
399.39	5.129
399.74	5.069
400.09	5.002
400.44	4.942
400.80	4.910
401.15	4.909
401.50	4.881
401.85	4.887
402.20	4.852
402.55	4.830
402.90	4.797
403.26	4.718
403.61	4.752
403.96	4.727
404.31	4.684
404.66	4.688
405.01	4.642
405.36	4.626
405.72	4.603
406.07	4.603
406.42	4.593
406.77	4.590
407.12	4.614
407.47	4.568
407.82	4.567
408.17	4.553
408.53	4.513
408.88	4.476
409.23	4.415
409.58	4.385
409.93	4.339
410.28	4.317
410.63	4.260
410.98	4.210
411.33	4.190
411.68	4.152
412.03	4.131
412.38	4.113
412.73	4.113
413.09	4.113
413.44	4.072
413.79	4.048
414.14	4.007
414.49	3.973
414.84	3.949
415.19	3.903
415.54	3.867
415.89	3.834
416.24	3.810
416.59	3.783
416.94	3.760
417.29	3.744
417.64	3.730
417.99	3.720
418.34	3.714
418.69	3.705
419.04	3.696
419.39	3.693
419.74	3.685
420.09	3.681
420.44	3.667
420.79	3.664
421.14	3.669
421.49	3.657
421.84	3.650
422.19	3.647
422.54	3.641
422.89	3.638
423.24	3.628
423.59	3.613
423.94	3.607
424.29	3.613
424.64	3.596
424.99	3.565
425.34	3.564
425.68	3.573
426.03	3.583
426.38	3.569
426.73	3.570
427.08	3.576
427.43	3.567
427.78	3.547
428.13	3.525
428.48	3.541
428.83	3.548
429.18	3.538
429.53	3.531
429.87	3.500
430.22	3.502
430.57	3.506
430.92	3.517
431.27	3.542
431.62	3.545
431.97	3.548
432.32	3.553
432.67	3.568
433.01	3.589
433.36	3.586
433.71	3.608
434.06	3.622
434.41	3.623
434.76	3.627
435.11	3.635
435.45	3.643
435.80	3.645
436.15	3.632
436.50	3.639
436.85	3.616
437.20	3.624
437.54	3.593
437.89	3.592
438.24	3.595
438.59	3.594
438.94	3.576
439.29	3.579
439.63	3.594
439.98	3.607
440.33	3.587
440.68	3.591
441.03	3.578
441.37	3.616
441.72	3.628
442.07	3.617
442.42	3.601
442.76	3.588
443.11	3.575
443.46	3.562
443.81	3.546
444.16	3.552
444.50	3.551
444.85	3.560
445.20	3.533
445.55	3.532
445.89	3.528
446.24	3.530
446.59	3.549
446.94	3.550
447.28	3.544
447.63	3.546
447.98	3.560
448.32	3.576
448.67	3.566
449.02	3.568
449.37	3.539
449.71	3.551
450.06	3.542
450.41	3.537
450.75	3.547
451.10	3.553
451.45	3.569
451.79	3.561
452.14	3.562
452.49	3.549
452.84	3.550
453.18	3.560
453.53	3.544
453.88	3.550
454.22	3.551
454.57	3.534
454.92	3.522
455.26	3.510
455.61	3.503
455.95	3.494
456.30	3.510
456.65	3.513
456.99	3.512
457.34	3.526
457.69	3.534
458.03	3.537
458.38	3.557
458.73	3.575
459.07	3.582
459.42	3.603
459.76	3.619
460.11	3.633
460.46	3.662
460.80	3.680
461.15	3.707
461.49	3.729
461.84	3.736
462.19	3.742
462.53	3.759
462.88	3.795
463.22	3.783
463.57	3.797
463.91	3.805
464.26	3.821
464.61	3.841
464.95	3.839
465.30	3.851
465.64	3.881
465.99	3.879
466.33	3.883
466.68	3.886
467.02	3.916
467.37	3.914
467.71	3.924
468.06	3.925
468.41	3.929
468.75	3.933
469.10	3.916
469.44	3.907
469.79	3.918
470.13	3.933
470.48	3.925
470.82	3.919
471.17	3.933
471.51	3.923
471.86	3.922
472.20	3.928
472.55	3.927
472.89	3.932
473.23	3.934
473.58	3.944
473.92	3.930
474.27	3.929
474.61	3.937
474.96	3.919
475.30	3.921
475.65	3.913
475.99	3.899
476.34	3.892
476.68	3.894
477.02	3.887
477.37	3.867
477.71	3.861
478.06	3.850
478.40	3.825
478.75	3.818
479.09	3.815
479.43	3.854
479.78	3.936
480.12	4.019
480.47	4.101
480.81	4.187
481.15	4.279
481.50	4.355
481.84	4.454
482.19	4.561
482.53	4.674
482.87	4.767
483.22	4.799
483.56	4.767
483.90	4.704
484.25	4.620
484.59	4.521
484.94	4.407
485.28	4.296
485.62	4.163
485.97	4.029
486.31	3.896
486.65	3.790
487.00	3.721
487.34	3.685
487.68	3.680
488.03	3.685
488.37	3.700
488.71	3.725
489.06	3.751
489.40	3.771
489.74	3.796
490.09	3.826
490.43	3.848
490.77	3.863
491.11	3.881
491.46	3.893
491.80	3.909
492.14	3.927
492.49	3.935
492.83	3.954
493.17	3.972
493.51	3.990
493.86	4.007
494.20	4.020
494.54	4.048
494.88	4.065
495.23	4.089
495.57	4.107
495.91	4.150
496.25	4.175
496.60	4.208
496.94	4.244
497.28	4.289
497.62	4.323
497.97	4.378
498.31	4.420
498.65	4.469
498.99	4.510
499.33	4.568
499.68	4.594
500.02	4.641
500.36	4.691
500.70	4.746
501.04	4.780
501.39	4.838
501.73	4.868
502.07	4.914
502.41	4.965
502.75	5.012
503.09	5.046
503.44	5.085
503.78	5.143
504.12	5.185
504.46	5.235
504.80	5.289
505.14	5.324
505.49	5.375
505.83	5.422
506.17	5.464
506.51	5.518
506.85	5.571
507.19	5.612
507.53	5.659
507.87	5.702
508.22	5.745
508.56	5.803
508.90	5.865
509.24	5.911
509.58	5.957
509.92	6.015
510.26	6.068
510.60	6.126
510.94	6.178
511.28	6.220
511.63	6.281
511.97	6.330
512.31	6.379
512.65	6.438
512.99	6.492
513.33	6.542
513.67	6.584
514.01	6.621
514.35	6.653
514.69	6.702
515.03	6.733
515.37	6.752
515.71	6.776
516.05	6.803
516.39	6.829
516.73	6.863
517.07	6.884
517.41	6.911
517.75	6.938
518.09	6.978
518.43	7.008
518.77	7.052
519.11	7.094
519.45	7.134
519.79	7.172
520.13	7.197
520.47	7.224
520.81	7.254
521.15	7.264
521.49	7.285
521.83	7.303
522.17	7.326
522.51	7.332
522.85	7.323
523.19	7.331
523.53	7.339
523.87	7.352
524.21	7.388
524.55	7.457
524.89	7.549
525.23	7.631
525.57	7.689
525.91	7.764
526.25	7.837
526.58	7.923
526.92	7.994
527.26	8.036
527.60	8.035
527.94	7.984
528.28	7.872
528.62	7.726
528.96	7.585
529.30	7.517
529.64	7.440
529.97	7.371
530.31	7.283
530.65	7.200
530.99	7.137
531.33	7.126
531.67	7.160
532.01	7.236
532.35	7.334
532.68	7.425
533.02	7.432
533.36	7.432
533.70	7.419
534.04	7.419
534.38	7.409
534.71	7.409
535.05	7.396
535.39	7.389
535.73	7.377
536.07	7.363
536.41	7.354
536.74	7.348
537.08	7.326
537.42	7.325
537.76	7.314
538.10	7.308
538.43	7.295
538.77	7.291
539.11	7.284
539.45	7.280
539.79	7.282
540.12	7.272
540.46	7.263
540.80	7.268
541.14	7.253
541.47	7.242
541.81	7.233
542.15	7.231
542.49	7.224
542.82	7.215
543.16	7.207
543.50	7.197
543.84	7.187
544.17	7.190
544.51	7.185
544.85	7.190
545.18	7.185
545.52	7.179
545.86	7.186
546.20	7.196
546.53	7.210
546.87	7.223
547.21	7.221
547.54	7.230
547.88	7.226
548.22	7.197
548.55	7.198
548.89	7.219
549.23	7.234
549.56	7.210
549.90	7.208
550.24	7.198
550.57	7.182
550.91	7.187
551.25	7.176
551.58	7.181
551.92	7.208
552.26	7.214
552.59	7.206
552.93	7.203
553.27	7.224
553.60	7.233
553.94	7.250
554.27	7.276
554.61	7.274
554.95	7.292
555.28	7.294
555.62	7.284
555.95	7.272
556.29	7.292
556.63	7.287
556.96	7.284
557.30	7.290
557.63	7.272
557.97	7.263
558.31	7.283
558.64	7.288
558.98	7.286
559.31	7.292
559.65	7.285
559.98	7.276
560.32	7.306
560.65	7.302
560.99	7.291
561.33	7.294
561.66	7.298
562.00	7.289
562.33	7.291
562.67	7.299
563.00	7.298
563.34	7.302
563.67	7.294
564.01	7.261
564.34	7.274
564.68	7.282
565.01	7.277
565.35	7.271
565.68	7.276
566.02	7.278
566.35	7.285
566.69	7.290
567.02	7.308
567.36	7.309
567.69	7.332
568.03	7.347
568.36	7.349
568.69	7.347
569.03	7.356
569.36	7.366
569.70	7.367
570.03	7.357
570.37	7.363
570.70	7.353
571.04	7.380
571.37	7.399
571.70	7.394
572.04	7.396
572.37	7.416
572.71	7.426
573.04	7.427
573.37	7.422
573.71	7.450
574.04	7.472
574.38	7.489
574.71	7.495
575.04	7.494
575.38	7.495
575.71	7.531
576.05	7.554
576.38	7.570
576.71	7.589
577.05	7.643
577.38	7.658
577.71	7.684
578.05	7.737
578.38	7.756
578.71	7.783
579.05	7.828
579.38	7.826
579.71	7.847
580.05	7.856
580.38	7.880
580.71	7.859
581.05	7.870
581.38	7.852
581.71	7.843
582.05	7.853
582.38	7.866
582.71	7.867
583.04	7.892
583.38	7.896
583.71	7.930
584.04	7.940
584.38	7.963
584.71	7.985
585.04	8.024
585.37	8.030
585.71	8.042
586.04	8.038
586.37	8.059
586.70	8.058
587.04	8.079
587.37	8.077
587.70	8.087
588.03	8.119
588.37	8.124
588.70	8.157
589.03	8.194
589.36	8.202
589.69	8.220
590.03	8.246
590.36	8.285
590.69	8.317
591.02	8.360
591.35	8.390
591.69	8.416
592.02	8.416
592.35	8.404
592.68	8.390
593.01	8.396
593.35	8.422
593.68	8.432
594.01	8.432
594.34	8.416
594.67	8.413
595.00	8.416
595.34	8.428
595.67	8.461
596.00	8.492
596.33	8.537
596.66	8.606
596.99	8.628
597.32	8.651
597.65	8.670
597.99	8.728
598.32	8.753
598.65	8.792
598.98	8.827
599.31	8.843
599.64	8.841
599.97	8.845
600.30	8.821
600.63	8.828
600.96	8.827
601.30	8.819
601.63	8.824
601.96	8.834
602.29	8.840
602.62	8.853
602.95	8.879
603.28	8.891
603.61	8.904
603.94	8.940
604.27	8.981
604.60	9.022
604.93	9.075
605.26	9.102
605.59	9.130
605.92	9.160
606.25	9.176
606.58	9.208
606.91	9.234
607.24	9.246
607.57	9.273
607.90	9.285
608.23	9.276
608.56	9.291
608.89	9.322
609.22	9.360
609.55	9.384
609.88	9.419
610.21	9.462
610.54	9.513
610.87	9.607
611.20	9.647
611.53	9.668
611.86	9.735
612.19	9.780
612.52	9.803
612.85	9.841
613.18	9.873
613.51	9.883
613.84	9.885
614.17	9.920
614.49	9.895
614.82	9.878
615.15	9.892
615.48	9.888
615.81	9.891
616.14	9.889
616.47	9.866
616.80	9.869
617.13	9.896
617.46	9.934
617.78	9.949
618.11	9.962
618.44	9.989
618.77	10.028
619.10	10.053
619.43	10.089
619.76	10.097
620.09	10.145
620.41	10.150
620.74	10.144
621.07	10.136
621.40	10.129
621.73	10.111
622.06	10.116
622.38	10.070
622.71	10.056
623.04	10.011
623.37	9.979
623.70	9.923
624.02	9.886
624.35	9.839
624.68	9.791
625.01	9.763
625.34	9.761
625.66	9.721
625.99	9.722
626.32	9.736
626.65	9.734
626.98	9.786
627.30	9.818
627.63	9.866
627.96	9.907
628.29	9.973
628.61	9.994
628.94	10.002
629.27	10.057
629.60	10.090
629.92	10.124
630.25	10.127
630.58	10.116
630.91	10.144
631.23	10.133
631.56	10.121
631.89	10.086
632.21	10.071
632.54	10.090
632.87	10.082
633.19	10.106
633.52	10.092
633.85	10.127
634.18	10.129
634.50	10.137
634.83	10.146
635.16	10.167
635.48	10.197
635.81	10.248
636.14	10.278
636.46	10.267
636.79	10.272
637.11	10.307
637.44	10.318
637.77	10.335
638.09	10.326
638.42	10.342
638.75	10.372
639.07	10.348
639.40	10.358
639.73	10.332
640.05	10.356
640.38	10.329
640.70	10.317
641.03	10.339
641.36	10.367
641.68	10.401
642.01	10.379
642.33	10.354
642.66	10.407
642.98	10.398
643.31	10.416
643.64	10.444
643.96	10.427
644.29	10.394
644.61	10.386
644.94	10.383
645.26	10.344
645.59	10.382
645.91	10.389
646.24	10.347
646.56	10.315
646.89	10.309
647.22	10.269
647.54	10.283
647.87	10.288
648.19	10.264
648.52	10.229
648.84	10.240
649.17	10.184
649.49	10.164
649.82	10.172
650.14	10.206
650.47	10.196
650.79	10.216
651.11	10.259
651.44	10.266
651.76	10.281
652.09	10.281
652.41	10.253
652.74	10.294
653.06	10.344
653.39	10.365
653.71	10.323
654.04	10.301
654.36	10.269
654.68	10.227
655.01	10.160
