OOIBase32 Version 2.0.0.6 Data File
++++++++++++++++++++++++++++++++++++
Date: 01-23-2012, 22:20:15
User: Valued Ocean Optics Customer
Spectrometer Serial Number: USB2E2917
Spectrometer Channel: Master
Integration Time (msec): 5
Spectra Averaged: 10
Boxcar Smoothing: 5
Correct for Electrical Dark: Enabled
Time Normalized: Disabled
Dual-beam Reference: Disabled
Reference Channel: Master
Temperature: Not acquired
Spectrometer Type: S2000
ADC Type: USB2000
Number of Pixels in File: 2048
Graph Title: 
>>>>>Begin Spectral Data<<<<<
180.30	0.000
180.67	0.000
181.03	174.105
181.40	179.386
181.77	10.267
182.14	36.257
182.51	82.571
182.88	-6090.095
183.25	-104.370
183.62	-58.598
183.99	80.570
184.36	-354.773
184.73	101.743
185.10	-13.862
185.46	91.592
185.83	51.910
186.20	-9.294
186.57	-222.570
186.94	-33.893
187.31	159.972
187.68	81.634
188.05	-23.194
188.42	-24.861
188.78	-46.073
189.15	-45.122
189.52	-38.531
189.89	-20.114
190.26	-40.588
190.63	-15.188
191.00	-18.759
191.37	-10.770
191.73	2.954
192.10	8.966
192.47	11.985
192.84	14.220
193.21	17.548
193.58	21.517
193.94	17.531
194.31	5.099
194.68	0.911
195.05	-10.019
195.42	-18.833
195.79	-30.579
196.15	-33.186
196.52	-25.353
196.89	-29.921
197.26	-28.637
197.63	-39.789
198.00	-41.965
198.36	-19.922
198.73	-14.403
199.10	4.533
199.47	11.024
199.84	6.212
200.20	15.139
200.57	-5.748
200.94	-2.474
201.31	-8.451
201.68	-2.784
202.04	-8.543
202.41	-8.959
202.78	-18.107
203.15	-30.468
203.51	-63.556
203.88	-53.170
204.25	-67.874
204.62	-35.704
204.98	-28.155
205.35	-15.001
205.72	-3.083
206.09	3.989
206.46	-3.930
206.82	-6.455
207.19	-7.993
207.56	-1.473
207.92	-13.192
208.29	-6.662
208.66	-2.970
209.03	-10.363
209.39	-21.330
209.76	-30.832
210.13	-34.133
210.50	-22.838
210.86	-4.335
211.23	6.890
211.60	10.698
211.96	20.982
212.33	17.520
212.70	20.170
213.07	21.618
213.43	25.818
213.80	28.084
214.17	19.418
214.53	14.930
214.90	4.095
215.27	2.721
215.63	-5.691
216.00	-7.650
216.37	3.485
216.74	-12.873
217.10	-14.320
217.47	-22.398
217.84	-22.573
218.20	-0.542
218.57	2.939
218.94	1.986
219.30	-7.015
219.67	-5.385
220.04	-11.115
220.40	-26.356
220.77	-30.257
221.13	-36.221
221.50	-34.345
221.87	-37.181
222.23	-42.997
222.60	-35.255
222.97	-27.819
223.33	-24.529
223.70	-17.458
224.07	-7.469
224.43	-1.320
224.80	3.264
225.16	6.837
225.53	7.494
225.90	4.075
226.26	1.516
226.63	-0.486
226.99	0.530
227.36	2.228
227.73	1.865
228.09	-1.842
228.46	-1.916
228.82	-1.435
229.19	-2.321
229.56	-5.831
229.92	-3.476
230.29	-1.173
230.65	-1.051
231.02	-1.813
231.38	-3.743
231.75	-4.345
232.12	-1.288
232.48	-0.033
232.85	-0.875
233.21	-0.681
233.58	2.275
233.94	3.520
234.31	1.954
234.68	2.663
235.04	2.455
235.41	2.236
235.77	2.625
236.14	2.125
236.50	1.373
236.87	2.290
237.23	1.762
237.60	2.425
237.96	1.870
238.33	3.089
238.69	2.929
239.06	2.689
239.42	3.362
239.79	4.039
240.15	4.092
240.52	3.281
240.88	3.263
241.25	3.560
241.61	3.236
241.98	3.864
242.34	3.715
242.71	3.967
243.07	4.505
243.44	4.488
243.80	4.232
244.17	4.281
244.53	4.849
244.90	4.777
245.26	5.020
245.63	4.883
245.99	4.625
246.36	4.602
246.72	4.364
247.09	4.153
247.45	4.021
247.81	3.881
248.18	3.579
248.54	3.277
248.91	3.124
249.27	2.996
249.64	3.102
250.00	3.171
250.36	3.444
250.73	3.806
251.09	3.969
251.46	3.736
251.82	3.843
252.19	4.477
252.55	4.084
252.91	3.904
253.28	2.981
253.64	2.916
254.01	2.711
254.37	2.351
254.73	2.761
255.10	3.077
255.46	3.354
255.83	3.283
256.19	3.382
256.55	3.689
256.92	3.981
257.28	4.333
257.65	4.651
258.01	4.924
258.37	4.710
258.74	4.518
259.10	4.359
259.46	4.624
259.83	4.729
260.19	4.619
260.55	4.494
260.92	4.309
261.28	4.170
261.64	3.729
262.01	3.614
262.37	3.806
262.73	3.484
263.10	3.361
263.46	3.403
263.82	3.519
264.19	3.305
264.55	3.676
264.91	3.615
265.28	3.797
265.64	3.733
266.00	3.310
266.37	3.324
266.73	3.750
267.09	3.808
267.46	3.686
267.82	3.561
268.18	3.830
268.54	3.600
268.91	3.845
269.27	3.868
269.63	4.208
270.00	4.341
270.36	4.451
270.72	4.423
271.08	4.290
271.45	4.128
271.81	4.295
272.17	4.275
272.53	4.170
272.90	3.970
273.26	3.715
273.62	3.512
273.98	3.491
274.35	3.266
274.71	3.354
275.07	3.785
275.43	3.910
275.80	4.052
276.16	4.099
276.52	4.123
276.88	4.229
277.25	4.424
277.61	4.463
277.97	4.353
278.33	4.132
278.69	4.031
279.06	3.783
279.42	3.371
279.78	2.958
280.14	2.934
280.50	3.219
280.87	3.314
281.23	3.543
281.59	3.573
281.95	3.656
282.31	4.030
282.68	3.932
283.04	4.054
283.40	4.368
283.76	4.411
284.12	4.451
284.48	4.446
284.85	4.376
285.21	4.065
285.57	4.130
285.93	4.340
286.29	4.185
286.65	4.281
287.02	4.155
287.38	4.269
287.74	4.472
288.10	4.392
288.46	4.266
288.82	4.241
289.18	4.322
289.54	4.134
289.91	4.049
290.27	4.175
290.63	4.269
290.99	4.397
291.35	4.391
291.71	4.692
292.07	4.822
292.43	5.107
292.79	5.379
293.16	5.581
293.52	5.768
293.88	5.807
294.24	5.944
294.60	5.947
294.96	6.045
295.32	6.157
295.68	5.857
296.04	6.063
296.40	6.124
296.76	6.212
297.12	6.292
297.49	6.446
297.85	6.667
298.21	6.784
298.57	7.002
298.93	7.117
299.29	7.233
299.65	7.393
300.01	7.495
300.37	7.593
300.73	7.788
301.09	8.021
301.45	8.286
301.81	8.421
302.17	8.555
302.53	8.667
302.89	8.828
303.25	8.806
303.61	9.083
303.97	9.140
304.33	9.174
304.69	9.101
305.05	9.048
305.41	8.955
305.77	8.946
306.13	8.889
306.49	8.873
306.85	8.962
307.21	9.147
307.57	9.164
307.93	9.308
308.29	9.449
308.65	9.516
309.01	9.545
309.37	9.757
309.73	9.843
310.09	9.957
310.45	10.071
310.81	10.065
311.17	10.064
311.53	10.125
311.89	10.182
312.25	10.130
312.61	10.154
312.96	10.284
313.32	10.178
313.68	10.025
314.04	10.103
314.40	10.141
314.76	10.138
315.12	10.129
315.48	10.133
315.84	9.885
316.20	9.873
316.56	9.877
316.92	9.823
317.27	9.704
317.63	9.808
317.99	9.696
318.35	9.690
318.71	9.709
319.07	9.648
319.43	9.772
319.79	9.845
320.15	9.847
320.50	9.722
320.86	9.745
321.22	9.744
321.58	9.760
321.94	9.734
322.30	9.667
322.66	9.660
323.01	9.679
323.37	9.592
323.73	9.584
324.09	9.572
324.45	9.730
324.81	9.679
325.17	9.705
325.52	9.673
325.88	9.614
326.24	9.732
326.60	9.812
326.96	9.918
327.31	9.851
327.67	9.868
328.03	9.796
328.39	9.645
328.75	9.639
329.11	9.745
329.46	9.617
329.82	9.652
330.18	9.433
330.54	9.388
330.90	9.344
331.25	9.334
331.61	9.270
331.97	9.278
332.33	9.369
332.68	9.253
333.04	9.146
333.40	9.206
333.76	9.260
334.11	9.221
334.47	9.098
334.83	8.888
335.19	8.921
335.54	8.944
335.90	9.033
336.26	9.011
336.62	9.068
336.97	8.947
337.33	8.938
337.69	8.854
338.05	8.813
338.40	8.780
338.76	8.892
339.12	8.791
339.48	8.749
339.83	8.621
340.19	8.610
340.55	8.533
340.90	8.587
341.26	8.587
341.62	8.555
341.97	8.758
342.33	8.814
342.69	8.789
343.04	8.809
343.40	8.824
343.76	8.802
344.12	8.756
344.47	8.806
344.83	8.720
345.19	8.640
345.54	8.665
345.90	8.617
346.26	8.550
346.61	8.633
346.97	8.599
347.32	8.596
347.68	8.499
348.04	8.499
348.39	8.433
348.75	8.582
349.11	8.663
349.46	8.668
349.82	8.577
350.18	8.619
350.53	8.473
350.89	8.499
351.24	8.454
351.60	8.533
351.96	8.540
352.31	8.587
352.67	8.493
353.02	8.409
353.38	8.275
353.74	8.250
354.09	8.157
354.45	8.164
354.80	8.114
355.16	8.067
355.52	8.051
355.87	7.947
356.23	7.917
356.58	7.893
356.94	7.872
357.29	7.895
357.65	7.858
358.00	7.909
358.36	7.894
358.72	7.909
359.07	7.964
359.43	7.958
359.78	8.035
360.14	7.962
360.49	7.968
360.85	7.963
361.20	8.019
361.56	8.044
361.91	7.952
362.27	7.932
362.62	7.909
362.98	7.823
363.33	7.792
363.69	7.715
364.04	7.705
364.40	7.702
364.75	7.686
365.11	7.653
365.46	7.612
365.82	7.665
366.17	7.657
366.53	7.695
366.88	7.647
367.24	7.674
367.59	7.668
367.95	7.683
368.30	7.647
368.66	7.586
369.01	7.534
369.37	7.544
369.72	7.510
370.08	7.554
370.43	7.494
370.78	7.547
371.14	7.515
371.49	7.536
371.85	7.540
372.20	7.523
372.56	7.595
372.91	7.594
373.26	7.552
373.62	7.535
373.97	7.506
374.33	7.453
374.68	7.373
375.03	7.370
375.39	7.331
375.74	7.310
376.10	7.250
376.45	7.216
376.80	7.197
377.16	7.216
377.51	7.276
377.87	7.208
378.22	7.229
378.57	7.287
378.93	7.268
379.28	7.281
379.63	7.306
379.99	7.352
380.34	7.309
380.70	7.291
381.05	7.278
381.40	7.216
381.76	7.231
382.11	7.279
382.46	7.242
382.82	7.232
383.17	7.210
383.52	7.163
383.88	7.094
384.23	7.114
384.58	7.105
384.94	7.060
385.29	7.070
385.64	7.051
385.99	6.994
386.35	7.032
386.70	7.039
387.05	7.015
387.41	7.008
387.76	7.016
388.11	6.961
388.47	6.989
388.82	6.945
389.17	6.906
389.52	6.904
389.88	6.874
390.23	6.830
390.58	6.805
390.93	6.819
391.29	6.840
391.64	6.865
391.99	6.878
392.34	6.834
392.70	6.831
393.05	6.805
393.40	6.788
393.75	6.790
394.11	6.758
394.46	6.744
394.81	6.686
395.16	6.614
395.52	6.583
395.87	6.561
396.22	6.528
396.57	6.523
396.92	6.530
397.28	6.540
397.63	6.481
397.98	6.511
398.33	6.488
398.68	6.509
399.04	6.515
399.39	6.499
399.74	6.475
400.09	6.455
400.44	6.431
400.80	6.372
401.15	6.313
401.50	6.302
401.85	6.289
402.20	6.270
402.55	6.250
402.90	6.247
403.26	6.247
403.61	6.265
403.96	6.302
404.31	6.310
404.66	6.329
405.01	6.331
405.36	6.346
405.72	6.291
406.07	6.309
406.42	6.288
406.77	6.264
407.12	6.239
407.47	6.224
407.82	6.182
408.17	6.165
408.53	6.154
408.88	6.160
409.23	6.169
409.58	6.132
409.93	6.106
410.28	6.095
410.63	6.066
410.98	6.067
411.33	6.047
411.68	6.052
412.03	6.058
412.38	6.048
412.73	6.036
413.09	5.994
413.44	6.016
413.79	6.000
414.14	5.980
414.49	5.997
414.84	5.964
415.19	5.950
415.54	5.931
415.89	5.917
416.24	5.914
416.59	5.884
416.94	5.897
417.29	5.899
417.64	5.890
417.99	5.900
418.34	5.905
418.69	5.907
419.04	5.912
419.39	5.920
419.74	5.913
420.09	5.914
420.44	5.919
420.79	5.896
421.14	5.881
421.49	5.893
421.84	5.887
422.19	5.864
422.54	5.879
422.89	5.871
423.24	5.873
423.59	5.887
423.94	5.887
424.29	5.893
424.64	5.888
424.99	5.907
425.34	5.907
425.68	5.921
426.03	5.944
426.38	5.941
426.73	5.962
427.08	5.941
427.43	5.942
427.78	5.922
428.13	5.933
428.48	5.957
428.83	5.956
429.18	5.939
429.53	5.912
429.87	5.911
430.22	5.867
430.57	5.863
430.92	5.851
431.27	5.845
431.62	5.848
431.97	5.823
432.32	5.820
432.67	5.808
433.01	5.816
433.36	5.845
433.71	5.848
434.06	5.862
434.41	5.854
434.76	5.876
435.11	5.863
435.45	5.860
435.80	5.859
436.15	5.831
436.50	5.832
436.85	5.812
437.20	5.793
437.54	5.777
437.89	5.775
438.24	5.750
438.59	5.741
438.94	5.740
439.29	5.742
439.63	5.734
439.98	5.751
440.33	5.748
440.68	5.754
441.03	5.752
441.37	5.729
441.72	5.724
442.07	5.733
442.42	5.727
442.76	5.722
443.11	5.708
443.46	5.706
443.81	5.712
444.16	5.694
444.50	5.684
444.85	5.677
445.20	5.699
445.55	5.695
445.89	5.698
446.24	5.698
446.59	5.694
446.94	5.689
447.28	5.706
447.63	5.694
447.98	5.712
448.32	5.723
448.67	5.718
449.02	5.692
449.37	5.702
449.71	5.681
450.06	5.639
450.41	5.645
450.75	5.654
451.10	5.632
451.45	5.635
451.79	5.628
452.14	5.609
452.49	5.598
452.84	5.601
453.18	5.577
453.53	5.589
453.88	5.617
454.22	5.601
454.57	5.592
454.92	5.587
455.26	5.575
455.61	5.571
455.95	5.576
456.30	5.595
456.65	5.589
456.99	5.598
457.34	5.594
457.69	5.604
458.03	5.611
458.38	5.617
458.73	5.633
459.07	5.647
459.42	5.656
459.76	5.667
460.11	5.653
460.46	5.659
460.80	5.680
461.15	5.676
461.49	5.665
461.84	5.652
462.19	5.657
462.53	5.656
462.88	5.636
463.22	5.623
463.57	5.617
463.91	5.632
464.26	5.653
464.61	5.648
464.95	5.660
465.30	5.658
465.64	5.667
465.99	5.658
466.33	5.632
466.68	5.657
467.02	5.673
467.37	5.674
467.71	5.667
468.06	5.645
468.41	5.628
468.75	5.631
469.10	5.616
469.44	5.600
469.79	5.580
470.13	5.605
470.48	5.571
470.82	5.548
471.17	5.527
471.51	5.502
471.86	5.499
472.20	5.495
472.55	5.478
472.89	5.476
473.23	5.476
473.58	5.480
473.92	5.449
474.27	5.444
474.61	5.443
474.96	5.429
475.30	5.424
475.65	5.419
475.99	5.411
476.34	5.397
476.68	5.387
477.02	5.379
477.37	5.378
477.71	5.386
478.06	5.397
478.40	5.407
478.75	5.444
479.09	5.490
479.43	5.542
479.78	5.599
480.12	5.663
480.47	5.754
480.81	5.844
481.15	5.940
481.50	6.026
481.84	6.133
482.19	6.244
482.53	6.336
482.87	6.389
483.22	6.381
483.56	6.324
483.90	6.242
484.25	6.114
484.59	5.989
484.94	5.888
485.28	5.798
485.62	5.674
485.97	5.551
486.31	5.437
486.65	5.360
487.00	5.331
487.34	5.354
487.68	5.395
488.03	5.455
488.37	5.514
488.71	5.529
489.06	5.524
489.40	5.523
489.74	5.512
490.09	5.504
490.43	5.491
490.77	5.485
491.11	5.475
491.46	5.466
491.80	5.458
492.14	5.430
492.49	5.402
492.83	5.384
493.17	5.355
493.51	5.331
493.86	5.303
494.20	5.274
494.54	5.245
494.88	5.220
495.23	5.204
495.57	5.189
495.91	5.189
496.25	5.183
496.60	5.185
496.94	5.191
497.28	5.187
497.62	5.184
497.97	5.184
498.31	5.193
498.65	5.170
498.99	5.164
499.33	5.168
499.68	5.171
500.02	5.158
500.36	5.142
500.70	5.114
501.04	5.115
501.39	5.101
501.73	5.103
502.07	5.100
502.41	5.126
502.75	5.119
503.09	5.122
503.44	5.115
503.78	5.127
504.12	5.121
504.46	5.141
504.80	5.130
505.14	5.135
505.49	5.123
505.83	5.133
506.17	5.122
506.51	5.123
506.85	5.096
507.19	5.105
507.53	5.097
507.87	5.101
508.22	5.098
508.56	5.102
508.90	5.104
509.24	5.106
509.58	5.099
509.92	5.095
510.26	5.088
510.60	5.109
510.94	5.098
511.28	5.100
511.63	5.112
511.97	5.121
512.31	5.116
512.65	5.108
512.99	5.101
513.33	5.087
513.67	5.092
514.01	5.104
514.35	5.110
514.69	5.110
515.03	5.123
515.37	5.122
515.71	5.116
516.05	5.124
516.39	5.131
516.73	5.148
517.07	5.158
517.41	5.162
517.75	5.146
518.09	5.135
518.43	5.132
518.77	5.103
519.11	5.095
519.45	5.078
519.79	5.058
520.13	5.046
520.47	5.022
520.81	5.018
521.15	4.999
521.49	4.998
521.83	4.988
522.17	4.996
522.51	5.016
522.85	5.008
523.19	5.028
523.53	5.064
523.87	5.085
524.21	5.118
524.55	5.157
524.89	5.196
525.23	5.237
525.57	5.260
525.91	5.276
526.25	5.301
526.58	5.329
526.92	5.354
527.26	5.358
527.60	5.366
527.94	5.363
528.28	5.343
528.62	5.330
528.96	5.302
529.30	5.288
529.64	5.271
529.97	5.241
530.31	5.210
530.65	5.171
530.99	5.151
531.33	5.127
531.67	5.121
532.01	5.122
532.35	5.113
532.68	5.109
533.02	5.103
533.36	5.091
533.70	5.085
534.04	5.083
534.38	5.082
534.71	5.069
535.05	5.065
535.39	5.050
535.73	5.033
536.07	5.009
536.41	5.013
536.74	5.011
537.08	5.014
537.42	5.022
537.76	5.028
538.10	5.031
538.43	5.037
538.77	5.049
539.11	5.058
539.45	5.066
539.79	5.092
540.12	5.092
540.46	5.097
540.80	5.090
541.14	5.077
541.47	5.070
541.81	5.069
542.15	5.066
542.49	5.046
542.82	5.021
543.16	5.004
543.50	4.966
543.84	4.954
544.17	4.930
544.51	4.925
544.85	4.914
545.18	4.905
545.52	4.884
545.86	4.878
546.20	4.856
546.53	4.845
546.87	4.815
547.21	4.799
547.54	4.772
547.88	4.749
548.22	4.732
548.55	4.734
548.89	4.723
549.23	4.707
549.56	4.681
549.90	4.713
550.24	4.713
550.57	4.728
550.91	4.730
551.25	4.745
551.58	4.757
551.92	4.758
552.26	4.737
552.59	4.721
552.93	4.723
553.27	4.738
553.60	4.721
553.94	4.729
554.27	4.727
554.61	4.752
554.95	4.741
555.28	4.738
555.62	4.740
555.95	4.748
556.29	4.755
556.63	4.749
556.96	4.739
557.30	4.734
557.63	4.710
557.97	4.705
558.31	4.687
558.64	4.689
558.98	4.694
559.31	4.702
559.65	4.697
559.98	4.685
560.32	4.700
560.65	4.698
560.99	4.691
561.33	4.707
561.66	4.705
562.00	4.678
562.33	4.683
562.67	4.671
563.00	4.673
563.34	4.695
563.67	4.699
564.01	4.698
564.34	4.687
564.68	4.691
565.01	4.680
565.35	4.679
565.68	4.707
566.02	4.704
566.35	4.728
566.69	4.718
567.02	4.715
567.36	4.737
567.69	4.722
568.03	4.729
568.36	4.749
568.69	4.740
569.03	4.753
569.36	4.756
569.70	4.729
570.03	4.723
570.37	4.725
570.70	4.726
571.04	4.716
571.37	4.711
571.70	4.727
572.04	4.716
572.37	4.726
572.71	4.724
573.04	4.711
573.37	4.742
573.71	4.720
574.04	4.719
574.38	4.716
574.71	4.711
575.04	4.721
575.38	4.705
575.71	4.691
576.05	4.690
576.38	4.686
576.71	4.676
577.05	4.653
577.38	4.672
577.71	4.651
578.05	4.616
578.38	4.596
578.71	4.609
579.05	4.593
579.38	4.582
579.71	4.567
580.05	4.554
580.38	4.557
580.71	4.559
581.05	4.540
581.38	4.566
581.71	4.573
582.05	4.569
582.38	4.560
582.71	4.553
583.04	4.539
583.38	4.541
583.71	4.543
584.04	4.537
584.38	4.526
584.71	4.518
585.04	4.518
585.37	4.532
585.71	4.530
586.04	4.529
586.37	4.544
586.70	4.575
587.04	4.582
587.37	4.584
587.70	4.609
588.03	4.628
588.37	4.641
588.70	4.611
589.03	4.593
589.36	4.605
589.69	4.566
590.03	4.541
590.36	4.518
590.69	4.537
591.02	4.536
591.35	4.481
591.69	4.455
592.02	4.459
592.35	4.450
592.68	4.458
593.01	4.439
593.35	4.482
593.68	4.506
594.01	4.494
594.34	4.471
594.67	4.454
595.00	4.469
595.34	4.451
595.67	4.421
596.00	4.430
596.33	4.420
596.66	4.419
596.99	4.383
597.32	4.350
597.65	4.354
597.99	4.327
598.32	4.293
598.65	4.277
598.98	4.261
599.31	4.251
599.64	4.254
599.97	4.241
600.30	4.209
600.63	4.202
600.96	4.202
601.30	4.223
601.63	4.241
601.96	4.269
602.29	4.275
602.62	4.301
602.95	4.303
603.28	4.280
603.61	4.282
603.94	4.296
604.27	4.290
604.60	4.268
604.93	4.230
605.26	4.194
605.59	4.176
605.92	4.152
606.25	4.131
606.58	4.130
606.91	4.110
607.24	4.127
607.57	4.110
607.90	4.118
608.23	4.114
608.56	4.103
608.89	4.094
609.22	4.065
609.55	4.049
609.88	4.017
610.21	3.990
610.54	3.982
610.87	3.920
611.20	3.896
611.53	3.874
611.86	3.865
612.19	3.853
612.52	3.840
612.85	3.828
613.18	3.852
613.51	3.833
613.84	3.804
614.17	3.788
614.49	3.809
614.82	3.808
615.15	3.783
615.48	3.787
615.81	3.789
616.14	3.774
616.47	3.777
616.80	3.743
617.13	3.770
617.46	3.791
617.78	3.761
618.11	3.729
618.44	3.730
618.77	3.713
619.10	3.689
619.43	3.646
619.76	3.639
620.09	3.612
620.41	3.606
620.74	3.590
621.07	3.555
621.40	3.574
621.73	3.595
622.06	3.604
622.38	3.611
622.71	3.587
623.04	3.604
623.37	3.643
623.70	3.679
624.02	3.699
624.35	3.724
624.68	3.746
625.01	3.767
625.34	3.739
625.66	3.741
625.99	3.757
626.32	3.810
626.65	3.829
626.98	3.798
627.30	3.775
627.63	3.767
627.96	3.740
628.29	3.711
628.61	3.688
628.94	3.670
629.27	3.657
629.60	3.654
629.92	3.596
630.25	3.580
630.58	3.556
630.91	3.551
631.23	3.530
631.56	3.508
631.89	3.535
632.21	3.540
632.54	3.534
632.87	3.499
633.19	3.470
633.52	3.481
633.85	3.458
634.18	3.443
634.50	3.433
634.83	3.428
635.16	3.458
635.48	3.440
635.81	3.400
636.14	3.402
636.46	3.392
636.79	3.408
637.11	3.428
637.44	3.413
637.77	3.433
638.09	3.429
638.42	3.395
638.75	3.332
639.07	3.294
639.40	3.273
639.73	3.287
640.05	3.325
640.38	3.291
640.70	3.247
641.03	3.227
641.36	3.233
641.68	3.232
642.01	3.224
642.33	3.258
642.66	3.271
642.98	3.269
643.31	3.216
643.64	3.207
643.96	3.187
644.29	3.190
644.61	3.232
644.94	3.247
645.26	3.243
645.59	3.281
645.91	3.288
646.24	3.308
646.56	3.358
646.89	3.389
647.22	3.389
647.54	3.417
647.87	3.394
648.19	3.365
648.52	3.331
648.84	3.328
649.17	3.331
649.49	3.281
649.82	3.260
650.14	3.238
650.47	3.244
650.79	3.207
651.11	3.203
651.44	3.210
651.76	3.224
652.09	3.234
652.41	3.210
652.74	3.169
653.06	3.185
653.39	3.204
653.71	3.226
654.04	3.257
654.36	3.311
654.68	3.309
655.01	3.331
655.33	3.321
655.66	3.351
655.98	3.365
656.30	3.435
656.63	3.485
656.95	3.492
657.28	3.504
657.60	3.434
657.92	3.389
658.25	3.389
658.57	3.364
