OOIBase32 Version 2.0.0.6 Data File
++++++++++++++++++++++++++++++++++++
Date: 01-23-2012, 22:18:51
User: Valued Ocean Optics Customer
Spectrometer Serial Number: USB2E2917
Spectrometer Channel: Master
Integration Time (msec): 5
Spectra Averaged: 10
Boxcar Smoothing: 5
Correct for Electrical Dark: Enabled
Time Normalized: Disabled
Dual-beam Reference: Disabled
Reference Channel: Master
Temperature: Not acquired
Spectrometer Type: S2000
ADC Type: USB2000
Number of Pixels in File: 2048
Graph Title: 
>>>>>Begin Spectral Data<<<<<
180.30	0.000
180.67	0.000
181.03	166.110
181.40	-94.968
181.77	11850.867
182.14	50.697
182.51	31.581
182.88	-614.566
183.25	-19.483
183.62	75.084
183.99	97.385
184.36	59.416
184.73	398.222
185.10	-23.880
185.46	57.664
185.83	185.592
186.20	169.377
186.57	518.378
186.94	-73.851
187.31	109.570
187.68	8.961
188.05	-31.095
188.42	-5.691
188.78	6.668
189.15	2.746
189.52	3.248
189.89	4.202
190.26	-24.318
190.63	-3.648
191.00	-13.817
191.37	-2.413
191.73	9.462
192.10	14.487
192.47	15.699
192.84	11.253
193.21	7.034
193.58	5.836
193.94	7.220
194.31	-0.419
194.68	1.320
195.05	2.658
195.42	-9.821
195.79	-17.373
196.15	-21.633
196.52	-13.921
196.89	-11.821
197.26	-6.108
197.63	-14.043
198.00	-27.053
198.36	-15.035
198.73	-17.574
199.10	-20.119
199.47	-10.057
199.84	-8.070
200.20	1.840
200.57	-28.627
200.94	-21.598
201.31	-23.060
201.68	18.824
202.04	39.747
202.41	57.682
202.78	62.375
203.15	62.621
203.51	49.405
203.88	43.399
204.25	29.499
204.62	43.829
204.98	33.863
205.35	39.085
205.72	23.339
206.09	23.911
206.46	20.005
206.82	21.073
207.19	22.863
207.56	28.156
207.92	18.836
208.29	20.845
208.66	18.836
209.03	30.548
209.39	26.105
209.76	17.481
210.13	-0.890
210.50	-24.021
210.86	-23.721
211.23	-9.356
211.60	-10.850
211.96	1.571
212.33	-5.427
212.70	-3.811
213.07	-15.055
213.43	-11.533
213.80	-8.389
214.17	-9.258
214.53	3.761
214.90	3.431
215.27	-6.056
215.63	-8.997
216.00	-8.225
216.37	0.961
216.74	-14.549
217.10	-11.909
217.47	-24.829
217.84	-25.855
218.20	-9.748
218.57	-11.811
218.94	-11.215
219.30	-6.788
219.67	6.311
220.04	-4.631
220.40	-2.211
220.77	3.696
221.13	-2.111
221.50	-4.337
221.87	-3.906
222.23	-2.830
222.60	-1.296
222.97	-2.910
223.33	-10.333
223.70	-14.094
224.07	-4.135
224.43	-2.068
224.80	2.552
225.16	4.149
225.53	7.476
225.90	3.102
226.26	0.211
226.63	-2.809
226.99	-3.137
227.36	-1.631
227.73	-1.005
228.09	-5.422
228.46	-6.252
228.82	-5.907
229.19	-5.352
229.56	-7.547
229.92	-4.613
230.29	-4.138
230.65	-2.213
231.02	-1.663
231.38	-2.903
231.75	-3.544
232.12	-1.089
232.48	-0.305
232.85	-1.323
233.21	-1.499
233.58	-1.266
233.94	-1.915
234.31	-2.910
234.68	-4.134
235.04	-6.482
235.41	-4.127
235.77	-1.711
236.14	-2.501
236.50	-4.931
236.87	-4.780
237.23	-5.096
237.60	-3.593
237.96	-2.636
238.33	-1.103
238.69	-0.516
239.06	0.751
239.42	0.682
239.79	0.205
240.15	0.744
240.52	1.173
240.88	1.272
241.25	1.725
241.61	1.749
241.98	1.997
242.34	1.243
242.71	1.801
243.07	2.119
243.44	2.514
243.80	2.392
244.17	2.543
244.53	3.012
244.90	2.875
245.26	2.937
245.63	2.639
245.99	2.477
246.36	2.889
246.72	2.427
247.09	2.507
247.45	2.169
247.81	2.122
248.18	1.833
248.54	1.878
248.91	1.703
249.27	1.623
249.64	2.034
250.00	2.122
250.36	2.292
250.73	2.688
251.09	2.531
251.46	2.681
251.82	2.905
252.19	3.381
252.55	3.087
252.91	3.381
253.28	2.834
253.64	2.701
254.01	2.818
254.37	2.362
254.73	2.684
255.10	2.475
255.46	2.425
255.83	2.121
256.19	1.932
256.55	1.856
256.92	1.876
257.28	2.080
257.65	2.305
258.01	2.344
258.37	2.180
258.74	2.081
259.10	2.095
259.46	2.147
259.83	2.449
260.19	2.475
260.55	2.541
260.92	2.600
261.28	2.502
261.64	2.248
262.01	1.885
262.37	1.747
262.73	1.288
263.10	1.324
263.46	1.351
263.82	1.038
264.19	1.051
264.55	1.059
264.91	1.265
265.28	1.878
265.64	1.716
266.00	1.539
266.37	1.895
266.73	2.402
267.09	2.491
267.46	2.447
267.82	2.401
268.18	2.519
268.54	2.294
268.91	2.100
269.27	1.632
269.63	1.561
270.00	1.925
270.36	1.835
270.72	1.596
271.08	1.259
271.45	1.087
271.81	1.502
272.17	1.528
272.53	1.406
272.90	1.252
273.26	1.368
273.62	1.620
273.98	1.503
274.35	1.554
274.71	1.856
275.07	1.954
275.43	2.137
275.80	1.938
276.16	2.046
276.52	2.123
276.88	2.126
277.25	2.133
277.61	2.077
277.97	2.174
278.33	1.917
278.69	1.464
279.06	1.760
279.42	1.374
279.78	1.191
280.14	1.016
280.50	1.201
280.87	1.335
281.23	1.128
281.59	0.977
281.95	0.911
282.31	1.168
282.68	1.438
283.04	1.314
283.40	1.543
283.76	1.391
284.12	1.327
284.48	1.387
284.85	1.274
285.21	1.347
285.57	1.548
285.93	1.629
286.29	1.754
286.65	1.755
287.02	1.776
287.38	1.786
287.74	2.051
288.10	1.991
288.46	1.887
288.82	1.776
289.18	1.793
289.54	1.626
289.91	1.718
290.27	1.551
290.63	1.507
290.99	1.334
291.35	1.435
291.71	1.443
292.07	1.532
292.43	1.697
292.79	2.056
293.16	2.075
293.52	2.174
293.88	2.128
294.24	2.275
294.60	2.214
294.96	2.387
295.32	2.495
295.68	2.362
296.04	2.464
296.40	2.341
296.76	2.291
297.12	2.335
297.49	2.370
297.85	2.522
298.21	2.457
298.57	2.538
298.93	2.510
299.29	2.334
299.65	2.284
300.01	2.255
300.37	2.225
300.73	2.400
301.09	2.464
301.45	2.449
301.81	2.249
302.17	2.178
302.53	2.180
302.89	2.072
303.25	1.975
303.61	2.283
303.97	2.339
304.33	2.450
304.69	2.255
305.05	2.209
305.41	2.239
305.77	2.356
306.13	2.280
306.49	2.358
306.85	2.534
307.21	2.754
307.57	2.623
307.93	2.572
308.29	2.639
308.65	2.687
309.01	2.765
309.37	2.843
309.73	2.839
310.09	2.892
310.45	2.965
310.81	2.955
311.17	2.721
311.53	2.637
311.89	2.768
312.25	2.737
312.61	2.796
312.96	2.804
313.32	2.693
313.68	2.598
314.04	2.780
314.40	2.614
314.76	2.666
315.12	2.953
315.48	3.185
315.84	2.990
316.20	3.034
316.56	3.089
316.92	3.004
317.27	2.947
317.63	2.907
317.99	2.767
318.35	2.770
318.71	2.637
319.07	2.536
319.43	2.433
319.79	2.435
320.15	2.426
320.50	2.267
320.86	2.372
321.22	2.526
321.58	2.698
321.94	2.745
322.30	2.767
322.66	2.954
323.01	3.015
323.37	3.021
323.73	3.188
324.09	3.324
324.45	3.449
324.81	3.485
325.17	3.473
325.52	3.523
325.88	3.539
326.24	3.644
326.60	3.746
326.96	3.916
327.31	4.017
327.67	4.026
328.03	3.956
328.39	3.900
328.75	4.000
329.11	4.232
329.46	4.220
329.82	4.278
330.18	4.336
330.54	4.312
330.90	4.273
331.25	4.315
331.61	4.310
331.97	4.354
332.33	4.545
332.68	4.491
333.04	4.403
333.40	4.478
333.76	4.532
334.11	4.450
334.47	4.453
334.83	4.401
335.19	4.504
335.54	4.614
335.90	4.679
336.26	4.636
336.62	4.748
336.97	4.757
337.33	4.666
337.69	4.630
338.05	4.723
338.40	4.771
338.76	4.865
339.12	4.795
339.48	4.772
339.83	4.708
340.19	4.746
340.55	4.636
340.90	4.614
341.26	4.653
341.62	4.672
341.97	4.744
342.33	4.706
342.69	4.685
343.04	4.753
343.40	4.776
343.76	4.861
344.12	4.937
344.47	5.038
344.83	5.028
345.19	5.055
345.54	5.176
345.90	5.167
346.26	5.106
346.61	5.087
346.97	5.002
347.32	5.035
347.68	4.950
348.04	4.853
348.39	4.884
348.75	5.046
349.11	4.998
349.46	4.948
349.82	5.019
350.18	5.141
350.53	5.150
350.89	5.212
351.24	5.173
351.60	5.202
351.96	5.229
352.31	5.189
352.67	5.054
353.02	5.114
353.38	5.088
353.74	5.064
354.09	5.057
354.45	5.138
354.80	5.050
355.16	5.009
355.52	5.060
355.87	5.046
356.23	5.039
356.58	5.138
356.94	5.162
357.29	5.240
357.65	5.248
358.00	5.237
358.36	5.202
358.72	5.333
359.07	5.405
359.43	5.406
359.78	5.459
360.14	5.508
360.49	5.489
360.85	5.487
361.20	5.472
361.56	5.468
361.91	5.493
362.27	5.588
362.62	5.534
362.98	5.516
363.33	5.537
363.69	5.496
364.04	5.474
364.40	5.487
364.75	5.515
365.11	5.547
365.46	5.550
365.82	5.545
366.17	5.447
366.53	5.498
366.88	5.501
367.24	5.555
367.59	5.629
367.95	5.673
368.30	5.662
368.66	5.652
369.01	5.664
369.37	5.704
369.72	5.720
370.08	5.782
370.43	5.761
370.78	5.768
371.14	5.709
371.49	5.722
371.85	5.736
372.20	5.834
372.56	5.882
372.91	5.884
373.26	5.864
373.62	5.874
373.97	5.943
374.33	6.025
374.68	6.063
375.03	6.134
375.39	6.093
375.74	6.117
376.10	6.049
376.45	6.094
376.80	6.080
377.16	6.136
377.51	6.151
377.87	6.093
378.22	6.030
378.57	6.110
378.93	6.119
379.28	6.222
379.63	6.254
379.99	6.318
380.34	6.341
380.70	6.446
381.05	6.503
381.40	6.558
381.76	6.584
382.11	6.649
382.46	6.632
382.82	6.671
383.17	6.686
383.52	6.705
383.88	6.722
384.23	6.730
384.58	6.699
384.94	6.699
385.29	6.731
385.64	6.795
385.99	6.863
386.35	6.920
386.70	6.890
387.05	6.884
387.41	6.896
387.76	6.894
388.11	6.903
388.47	6.927
388.82	6.904
389.17	6.889
389.52	6.869
389.88	6.856
390.23	6.845
390.58	6.940
390.93	6.948
391.29	6.959
391.64	6.991
391.99	6.970
392.34	6.978
392.70	7.001
393.05	7.012
393.40	6.995
393.75	7.002
394.11	6.986
394.46	6.933
394.81	6.934
395.16	6.924
395.52	6.919
395.87	6.916
396.22	6.876
396.57	6.839
396.92	6.858
397.28	6.901
397.63	6.881
397.98	6.898
398.33	6.898
398.68	6.891
399.04	6.884
399.39	6.860
399.74	6.853
400.09	6.872
400.44	6.904
400.80	6.896
401.15	6.850
401.50	6.855
401.85	6.859
402.20	6.851
402.55	6.877
402.90	6.893
403.26	6.937
403.61	6.964
403.96	6.973
404.31	6.968
404.66	6.969
405.01	7.014
405.36	7.030
405.72	7.028
406.07	7.055
406.42	7.041
406.77	7.039
407.12	7.021
407.47	7.030
407.82	7.015
408.17	7.024
408.53	7.019
408.88	7.022
409.23	7.018
409.58	6.996
409.93	6.950
410.28	6.966
410.63	6.948
410.98	6.930
411.33	6.899
411.68	6.904
412.03	6.891
412.38	6.876
412.73	6.855
413.09	6.824
413.44	6.828
413.79	6.824
414.14	6.772
414.49	6.752
414.84	6.728
415.19	6.716
415.54	6.694
415.89	6.658
416.24	6.627
416.59	6.613
416.94	6.612
417.29	6.603
417.64	6.579
417.99	6.563
418.34	6.536
418.69	6.502
419.04	6.481
419.39	6.459
419.74	6.448
420.09	6.434
420.44	6.406
420.79	6.371
421.14	6.324
421.49	6.312
421.84	6.304
422.19	6.289
422.54	6.305
422.89	6.303
423.24	6.296
423.59	6.284
423.94	6.281
424.29	6.286
424.64	6.273
424.99	6.294
425.34	6.298
425.68	6.309
426.03	6.330
426.38	6.314
426.73	6.324
427.08	6.313
427.43	6.307
427.78	6.308
428.13	6.295
428.48	6.300
428.83	6.313
429.18	6.305
429.53	6.291
429.87	6.276
430.22	6.260
430.57	6.240
430.92	6.236
431.27	6.250
431.62	6.264
431.97	6.247
432.32	6.251
432.67	6.226
433.01	6.215
433.36	6.221
433.71	6.230
434.06	6.250
434.41	6.267
434.76	6.287
435.11	6.296
435.45	6.265
435.80	6.277
436.15	6.279
436.50	6.289
436.85	6.278
437.20	6.262
437.54	6.264
437.89	6.235
438.24	6.224
438.59	6.210
438.94	6.191
439.29	6.188
439.63	6.173
439.98	6.162
440.33	6.139
440.68	6.134
441.03	6.130
441.37	6.103
441.72	6.107
442.07	6.085
442.42	6.070
442.76	6.053
443.11	6.029
443.46	6.014
443.81	6.001
444.16	5.988
444.50	5.985
444.85	5.973
445.20	5.960
445.55	5.944
445.89	5.916
446.24	5.897
446.59	5.884
446.94	5.873
447.28	5.862
447.63	5.850
447.98	5.839
448.32	5.817
448.67	5.798
449.02	5.788
449.37	5.774
449.71	5.772
450.06	5.755
450.41	5.756
450.75	5.762
451.10	5.747
451.45	5.739
451.79	5.730
452.14	5.717
452.49	5.695
452.84	5.703
453.18	5.695
453.53	5.702
453.88	5.711
454.22	5.706
454.57	5.702
454.92	5.731
455.26	5.738
455.61	5.772
455.95	5.787
456.30	5.820
456.65	5.817
456.99	5.824
457.34	5.830
457.69	5.856
458.03	5.859
458.38	5.875
458.73	5.882
459.07	5.906
459.42	5.903
459.76	5.920
460.11	5.921
460.46	5.927
460.80	5.973
461.15	6.004
461.49	6.008
461.84	6.052
462.19	6.096
462.53	6.120
462.88	6.125
463.22	6.144
463.57	6.192
463.91	6.241
464.26	6.302
464.61	6.329
464.95	6.366
465.30	6.390
465.64	6.426
465.99	6.454
466.33	6.482
466.68	6.521
467.02	6.566
467.37	6.598
467.71	6.609
468.06	6.634
468.41	6.636
468.75	6.653
469.10	6.681
469.44	6.673
469.79	6.676
470.13	6.704
470.48	6.692
470.82	6.690
471.17	6.679
471.51	6.673
471.86	6.665
472.20	6.668
472.55	6.674
472.89	6.677
473.23	6.686
473.58	6.683
473.92	6.663
474.27	6.680
474.61	6.671
474.96	6.669
475.30	6.658
475.65	6.633
475.99	6.623
476.34	6.606
476.68	6.603
477.02	6.599
477.37	6.591
477.71	6.574
478.06	6.570
478.40	6.603
478.75	6.636
479.09	6.691
479.43	6.749
479.78	6.828
480.12	6.909
480.47	7.012
480.81	7.112
481.15	7.230
481.50	7.349
481.84	7.487
482.19	7.624
482.53	7.738
482.87	7.796
483.22	7.801
483.56	7.730
483.90	7.631
484.25	7.493
484.59	7.367
484.94	7.259
485.28	7.166
485.62	7.039
485.97	6.909
486.31	6.797
486.65	6.739
487.00	6.735
487.34	6.806
487.68	6.899
488.03	7.000
488.37	7.089
488.71	7.148
489.06	7.178
489.40	7.221
489.74	7.233
490.09	7.270
490.43	7.299
490.77	7.336
491.11	7.349
491.46	7.390
491.80	7.437
492.14	7.480
492.49	7.513
492.83	7.565
493.17	7.610
493.51	7.695
493.86	7.783
494.20	7.885
494.54	7.978
494.88	8.087
495.23	8.177
495.57	8.281
495.91	8.396
496.25	8.503
496.60	8.628
496.94	8.751
497.28	8.875
497.62	9.008
497.97	9.146
498.31	9.317
498.65	9.468
498.99	9.644
499.33	9.836
499.68	10.035
500.02	10.247
500.36	10.450
500.70	10.658
501.04	10.876
501.39	11.075
501.73	11.310
502.07	11.524
502.41	11.779
502.75	12.029
503.09	12.281
503.44	12.537
503.78	12.830
504.12	13.109
504.46	13.406
504.80	13.685
505.14	14.005
505.49	14.298
505.83	14.603
506.17	14.900
506.51	15.194
506.85	15.518
507.19	15.864
507.53	16.165
507.87	16.510
508.22	16.850
508.56	17.213
508.90	17.552
509.24	17.915
509.58	18.311
509.92	18.705
510.26	19.103
510.60	19.497
510.94	19.873
511.28	20.314
511.63	20.725
511.97	21.137
512.31	21.581
512.65	22.037
512.99	22.493
513.33	22.976
513.67	23.457
514.01	23.940
514.35	24.408
514.69	24.874
515.03	25.296
515.37	25.698
515.71	26.111
516.05	26.494
516.39	26.837
516.73	27.199
517.07	27.515
517.41	27.848
517.75	28.170
518.09	28.499
518.43	28.825
518.77	29.172
519.11	29.544
519.45	29.926
519.79	30.317
520.13	30.754
520.47	31.176
520.81	31.605
521.15	32.027
521.49	32.453
521.83	32.835
522.17	33.208
522.51	33.575
522.85	33.954
523.19	34.372
523.53	34.849
523.87	35.318
524.21	35.776
524.55	36.208
524.89	36.596
525.23	36.972
525.57	37.313
525.91	37.624
526.25	37.914
526.58	38.185
526.92	38.393
527.26	38.544
527.60	38.680
527.94	38.778
528.28	38.877
528.62	38.967
528.96	39.036
529.30	39.138
529.64	39.237
529.97	39.326
530.31	39.435
530.65	39.562
530.99	39.710
531.33	39.882
531.67	40.083
532.01	40.262
532.35	40.430
532.68	40.575
533.02	40.706
533.36	40.820
533.70	40.934
534.04	41.011
534.38	41.128
534.71	41.257
535.05	41.359
535.39	41.457
535.73	41.569
536.07	41.702
536.41	41.870
536.74	42.052
537.08	42.227
537.42	42.395
537.76	42.589
538.10	42.724
538.43	42.870
538.77	43.016
539.11	43.147
539.45	43.271
539.79	43.349
540.12	43.406
540.46	43.409
540.80	43.421
541.14	43.432
541.47	43.435
541.81	43.454
542.15	43.481
542.49	43.477
542.82	43.449
543.16	43.445
543.50	43.480
543.84	43.536
544.17	43.621
544.51	43.724
544.85	43.815
545.18	43.870
545.52	43.964
545.86	44.005
546.20	44.070
546.53	44.159
546.87	44.228
547.21	44.313
547.54	44.393
547.88	44.474
548.22	44.501
548.55	44.586
548.89	44.700
549.23	44.752
549.56	44.777
549.90	44.869
550.24	44.946
550.57	44.986
550.91	44.973
551.25	44.979
551.58	44.975
551.92	45.033
552.26	45.015
552.59	45.018
552.93	45.077
553.27	45.132
553.60	45.128
553.94	45.167
554.27	45.190
554.61	45.257
554.95	45.306
555.28	45.355
555.62	45.418
555.95	45.494
556.29	45.546
556.63	45.529
556.96	45.531
557.30	45.528
557.63	45.555
557.97	45.566
558.31	45.585
558.64	45.619
558.98	45.628
559.31	45.602
559.65	45.590
559.98	45.578
560.32	45.597
560.65	45.623
560.99	45.605
561.33	45.567
561.66	45.543
562.00	45.535
562.33	45.491
562.67	45.476
563.00	45.451
563.34	45.448
563.67	45.372
564.01	45.325
564.34	45.284
564.68	45.275
565.01	45.257
565.35	45.251
565.68	45.245
566.02	45.260
566.35	45.243
566.69	45.241
567.02	45.234
567.36	45.268
567.69	45.259
568.03	45.268
568.36	45.263
568.69	45.229
569.03	45.214
569.36	45.163
569.70	45.114
570.03	45.084
570.37	45.032
570.70	44.972
571.04	44.929
571.37	44.903
571.70	44.863
572.04	44.821
572.37	44.789
572.71	44.761
573.04	44.756
573.37	44.755
573.71	44.760
574.04	44.758
574.38	44.784
574.71	44.801
575.04	44.819
575.38	44.875
575.71	44.893
576.05	44.951
576.38	45.009
576.71	45.016
577.05	45.002
577.38	45.010
577.71	45.060
578.05	45.040
578.38	45.054
578.71	45.079
579.05	45.038
579.38	45.070
579.71	45.058
580.05	44.971
580.38	44.966
580.71	44.974
581.05	44.967
581.38	44.905
581.71	44.933
582.05	44.877
582.38	44.850
582.71	44.834
583.04	44.786
583.38	44.762
583.71	44.749
584.04	44.715
584.38	44.686
584.71	44.628
585.04	44.604
585.37	44.537
585.71	44.545
586.04	44.487
586.37	44.411
586.70	44.355
587.04	44.280
587.37	44.270
587.70	44.178
588.03	44.095
588.37	44.018
588.70	43.978
589.03	43.904
589.36	43.810
589.69	43.724
590.03	43.714
590.36	43.660
590.69	43.618
591.02	43.557
591.35	43.509
591.69	43.452
592.02	43.367
592.35	43.251
592.68	43.196
593.01	43.121
593.35	43.072
593.68	42.956
594.01	42.850
594.34	42.787
594.67	42.678
595.00	42.647
595.34	42.567
595.67	42.538
596.00	42.508
596.33	42.415
596.66	42.374
596.99	42.303
597.32	42.319
597.65	42.324
597.99	42.276
598.32	42.258
598.65	42.195
598.98	42.213
599.31	42.155
599.64	42.089
599.97	42.065
600.30	41.963
600.63	41.904
600.96	41.766
601.30	41.657
601.63	41.545
601.96	41.461
602.29	41.411
602.62	41.301
602.95	41.250
603.28	41.171
603.61	41.088
603.94	41.051
604.27	41.017
604.60	41.020
604.93	41.035
605.26	40.999
605.59	40.974
605.92	40.899
606.25	40.870
606.58	40.858
606.91	40.858
607.24	40.831
607.57	40.779
607.90	40.720
608.23	40.623
608.56	40.554
608.89	40.556
609.22	40.545
609.55	40.521
609.88	40.473
610.21	40.404
610.54	40.418
610.87	40.436
611.20	40.459
611.53	40.491
611.86	40.515
612.19	40.511
612.52	40.428
612.85	40.367
613.18	40.307
613.51	40.296
613.84	40.289
614.17	40.182
614.49	40.083
614.82	40.003
615.15	39.913
615.48	39.903
615.81	39.840
616.14	39.796
616.47	39.763
616.80	39.742
617.13	39.677
617.46	39.612
617.78	39.598
618.11	39.578
618.44	39.517
618.77	39.455
619.10	39.368
619.43	39.320
619.76	39.295
620.09	39.269
620.41	39.256
620.74	39.208
621.07	39.150
621.40	39.044
621.73	38.961
622.06	38.918
622.38	38.912
622.71	38.795
623.04	38.695
623.37	38.640
623.70	38.531
624.02	38.437
624.35	38.411
624.68	38.331
625.01	38.309
625.34	38.277
625.66	38.194
625.99	38.133
626.32	38.113
626.65	38.156
626.98	38.108
627.30	38.122
627.63	38.073
627.96	38.047
628.29	38.067
628.61	38.013
628.94	37.944
629.27	37.963
629.60	37.932
629.92	37.868
630.25	37.764
630.58	37.725
630.91	37.623
631.23	37.591
631.56	37.528
631.89	37.432
632.21	37.410
632.54	37.349
632.87	37.301
633.19	37.195
633.52	37.162
633.85	37.100
634.18	37.034
634.50	36.938
634.83	36.911
635.16	36.851
635.48	36.827
635.81	36.776
636.14	36.833
636.46	36.774
636.79	36.801
637.11	36.811
637.44	36.800
637.77	36.814
638.09	36.845
638.42	36.763
638.75	36.698
639.07	36.609
639.40	36.532
639.73	36.451
640.05	36.459
640.38	36.376
640.70	36.323
641.03	36.307
641.36	36.255
641.68	36.221
642.01	36.267
642.33	36.244
642.66	36.289
642.98	36.222
643.31	36.159
643.64	36.072
643.96	35.975
644.29	35.903
644.61	35.829
644.94	35.741
645.26	35.635
645.59	35.564
645.91	35.565
646.24	35.518
646.56	35.493
646.89	35.424
647.22	35.417
647.54	35.462
647.87	35.464
648.19	35.464
648.52	35.449
648.84	35.482
