OOIBase32 Version 2.0.0.6 Data File
++++++++++++++++++++++++++++++++++++
Date: 01-23-2012, 22:20:44
User: Valued Ocean Optics Customer
Spectrometer Serial Number: USB2E2917
Spectrometer Channel: Master
Integration Time (msec): 5
Spectra Averaged: 10
Boxcar Smoothing: 5
Correct for Electrical Dark: Enabled
Time Normalized: Disabled
Dual-beam Reference: Disabled
Reference Channel: Master
Temperature: Not acquired
Spectrometer Type: S2000
ADC Type: USB2000
Number of Pixels in File: 2048
Graph Title: 
>>>>>Begin Spectral Data<<<<<
180.30	0.000
180.67	0.000
181.03	175.137
181.40	-320.818
181.77	19172.067
182.14	-89.569
182.51	64.851
182.88	1733.475
183.25	348.607
183.62	-55.291
183.99	13.927
184.36	-339.726
184.73	102.952
185.10	-16.904
185.46	45.299
185.83	300.794
186.20	74.036
186.57	69.819
186.94	-89.363
187.31	261.207
187.68	-367.218
188.05	-58.248
188.42	-35.328
188.78	-45.812
189.15	-36.303
189.52	-16.963
189.89	-23.526
190.26	-45.566
190.63	-18.158
191.00	-10.680
191.37	9.160
191.73	17.464
192.10	26.011
192.47	23.523
192.84	27.021
193.21	18.222
193.58	15.272
193.94	6.908
194.31	2.251
194.68	-5.115
195.05	-24.534
195.42	-50.217
195.79	-60.940
196.15	-48.173
196.52	-34.850
196.89	-45.362
197.26	-33.566
197.63	-36.327
198.00	-30.116
198.36	-27.858
198.73	-22.924
199.10	-9.054
199.47	3.048
199.84	3.500
200.20	1.014
200.57	-35.653
200.94	-37.604
201.31	-44.165
201.68	-24.743
202.04	-19.509
202.41	-6.436
202.78	-17.255
203.15	-14.982
203.51	-51.181
203.88	-53.147
204.25	-52.423
204.62	-22.370
204.98	-14.932
205.35	-6.240
205.72	-11.246
206.09	-18.415
206.46	-22.364
206.82	-11.094
207.19	-26.866
207.56	-7.836
207.92	-18.137
208.29	-18.094
208.66	-10.106
209.03	1.165
209.39	-19.751
209.76	-27.333
210.13	-30.261
210.50	-28.091
210.86	-14.890
211.23	9.264
211.60	9.131
211.96	27.035
212.33	13.385
212.70	5.670
213.07	-11.261
213.43	-5.229
213.80	-0.849
214.17	-4.322
214.53	-4.206
214.90	-7.300
215.27	-13.691
215.63	-18.761
216.00	-32.920
216.37	-16.891
216.74	-25.588
217.10	-18.659
217.47	-11.085
217.84	-15.485
218.20	5.665
218.57	10.697
218.94	11.698
219.30	5.124
219.67	1.155
220.04	7.679
220.40	4.295
220.77	7.639
221.13	3.598
221.50	-5.998
221.87	-3.258
222.23	-8.800
222.60	-14.918
222.97	-24.853
223.33	-20.148
223.70	-10.974
224.07	-6.212
224.43	-1.524
224.80	0.717
225.16	2.099
225.53	5.070
225.90	2.536
226.26	1.191
226.63	0.872
226.99	4.099
227.36	4.901
227.73	4.942
228.09	2.085
228.46	1.524
228.82	2.882
229.19	3.235
229.56	1.421
229.92	3.180
230.29	4.537
230.65	5.549
231.02	5.103
231.38	4.073
231.75	3.096
232.12	5.673
232.48	7.070
232.85	5.007
233.21	5.695
233.58	6.759
233.94	8.291
234.31	6.621
234.68	8.264
235.04	8.017
235.41	8.744
235.77	9.226
236.14	7.959
236.50	6.566
236.87	8.200
237.23	7.376
237.60	7.387
237.96	6.881
238.33	8.416
238.69	8.249
239.06	8.795
239.42	9.023
239.79	9.416
240.15	10.337
240.52	10.469
240.88	10.406
241.25	11.273
241.61	11.597
241.98	11.867
242.34	11.562
242.71	11.969
243.07	12.179
243.44	12.222
243.80	12.333
244.17	12.136
244.53	12.156
244.90	12.107
245.26	11.664
245.63	12.022
245.99	11.972
246.36	12.269
246.72	11.995
247.09	11.847
247.45	11.372
247.81	10.842
248.18	10.613
248.54	10.644
248.91	10.450
249.27	10.991
249.64	10.833
250.00	10.729
250.36	10.170
250.73	10.355
251.09	10.455
251.46	10.784
251.82	11.139
252.19	11.396
252.55	10.993
252.91	11.026
253.28	10.504
253.64	9.646
254.01	9.775
254.37	9.959
254.73	10.117
255.10	10.312
255.46	10.522
255.83	10.475
256.19	10.706
256.55	10.831
256.92	10.895
257.28	11.059
257.65	11.348
258.01	11.436
258.37	11.260
258.74	11.087
259.10	11.158
259.46	11.241
259.83	11.314
260.19	11.080
260.55	11.057
260.92	11.033
261.28	10.949
261.64	10.772
262.01	10.542
262.37	10.667
262.73	10.581
263.10	10.367
263.46	10.783
263.82	10.606
264.19	10.405
264.55	10.369
264.91	10.097
265.28	10.028
265.64	9.714
266.00	9.620
266.37	9.712
266.73	10.059
267.09	9.933
267.46	9.910
267.82	10.131
268.18	10.529
268.54	10.452
268.91	10.669
269.27	10.683
269.63	10.832
270.00	10.928
270.36	10.805
270.72	10.436
271.08	10.248
271.45	9.894
271.81	9.994
272.17	9.932
272.53	9.941
272.90	9.587
273.26	9.591
273.62	9.735
273.98	9.648
274.35	9.706
274.71	10.126
275.07	10.425
275.43	10.587
275.80	10.362
276.16	10.574
276.52	10.616
276.88	10.854
277.25	10.750
277.61	10.524
277.97	10.482
278.33	10.264
278.69	9.977
279.06	9.983
279.42	9.662
279.78	9.687
280.14	9.448
280.50	9.535
280.87	9.718
281.23	9.930
281.59	10.003
281.95	10.025
282.31	10.200
282.68	10.235
283.04	10.229
283.40	10.433
283.76	10.367
284.12	10.497
284.48	10.411
284.85	10.317
285.21	10.088
285.57	10.298
285.93	10.350
286.29	10.380
286.65	10.376
287.02	10.299
287.38	10.290
287.74	10.229
288.10	9.983
288.46	9.933
288.82	9.837
289.18	9.962
289.54	9.830
289.91	9.999
290.27	9.916
290.63	9.975
290.99	9.835
291.35	9.776
291.71	9.991
292.07	10.052
292.43	10.298
292.79	10.575
293.16	10.623
293.52	10.605
293.88	10.435
294.24	10.553
294.60	10.464
294.96	10.621
295.32	10.682
295.68	10.594
296.04	10.919
296.40	10.942
296.76	11.007
297.12	10.953
297.49	11.026
297.85	11.135
298.21	11.339
298.57	11.453
298.93	11.649
299.29	11.806
299.65	11.948
300.01	11.935
300.37	12.004
300.73	12.338
301.09	12.646
301.45	12.988
301.81	13.220
302.17	13.328
302.53	13.657
302.89	13.782
303.25	13.836
303.61	14.257
303.97	14.399
304.33	14.505
304.69	14.307
305.05	14.477
305.41	14.328
305.77	14.368
306.13	14.323
306.49	14.426
306.85	14.581
307.21	14.773
307.57	14.729
307.93	14.824
308.29	14.978
308.65	15.116
309.01	15.135
309.37	15.393
309.73	15.507
310.09	15.660
310.45	15.697
310.81	15.767
311.17	15.738
311.53	15.765
311.89	15.766
312.25	15.802
312.61	15.946
312.96	15.985
313.32	15.790
313.68	15.695
314.04	15.667
314.40	15.623
314.76	15.489
315.12	15.667
315.48	15.742
315.84	15.643
316.20	15.665
316.56	15.705
316.92	15.795
317.27	15.823
317.63	15.768
317.99	15.675
318.35	15.545
318.71	15.524
319.07	15.473
319.43	15.372
319.79	15.514
320.15	15.457
320.50	15.187
320.86	15.123
321.22	15.132
321.58	15.267
321.94	15.210
322.30	15.422
322.66	15.431
323.01	15.362
323.37	15.325
323.73	15.193
324.09	15.106
324.45	15.207
324.81	15.122
325.17	15.113
325.52	15.027
325.88	15.037
326.24	14.898
326.60	15.041
326.96	15.008
327.31	15.019
327.67	15.006
328.03	15.114
328.39	15.046
328.75	15.000
329.11	14.978
329.46	14.915
329.82	14.904
330.18	14.848
330.54	14.752
330.90	14.724
331.25	14.676
331.61	14.709
331.97	14.536
332.33	14.593
332.68	14.637
333.04	14.570
333.40	14.651
333.76	14.614
334.11	14.525
334.47	14.439
334.83	14.411
335.19	14.419
335.54	14.370
335.90	14.434
336.26	14.354
336.62	14.324
336.97	14.266
337.33	14.283
337.69	14.278
338.05	14.299
338.40	14.284
338.76	14.191
339.12	14.099
339.48	14.067
339.83	13.943
340.19	13.815
340.55	13.681
340.90	13.732
341.26	13.550
341.62	13.550
341.97	13.581
342.33	13.627
342.69	13.706
343.04	13.718
343.40	13.665
343.76	13.663
344.12	13.802
344.47	13.847
344.83	13.758
345.19	13.739
345.54	13.677
345.90	13.675
346.26	13.576
346.61	13.522
346.97	13.490
347.32	13.479
347.68	13.403
348.04	13.276
348.39	13.231
348.75	13.373
349.11	13.315
349.46	13.300
349.82	13.152
350.18	13.093
350.53	12.911
350.89	12.871
351.24	12.778
351.60	12.852
351.96	12.901
352.31	12.929
352.67	12.831
353.02	12.921
353.38	12.830
353.74	12.838
354.09	12.806
354.45	12.945
354.80	12.856
355.16	12.845
355.52	12.747
355.87	12.583
356.23	12.435
356.58	12.413
356.94	12.336
357.29	12.352
357.65	12.302
358.00	12.277
358.36	12.140
358.72	12.214
359.07	12.273
359.43	12.333
359.78	12.374
360.14	12.416
360.49	12.340
360.85	12.315
361.20	12.344
361.56	12.351
361.91	12.339
362.27	12.397
362.62	12.336
362.98	12.270
363.33	12.169
363.69	12.102
364.04	12.084
364.40	12.063
364.75	12.015
365.11	12.050
365.46	12.078
365.82	12.069
366.17	12.010
366.53	12.010
366.88	12.002
367.24	12.053
367.59	12.083
367.95	12.047
368.30	12.016
368.66	12.022
369.01	11.962
369.37	11.952
369.72	11.908
370.08	11.970
370.43	11.948
370.78	11.893
371.14	11.853
371.49	11.840
371.85	11.824
372.20	11.831
372.56	11.829
372.91	11.774
373.26	11.667
373.62	11.665
373.97	11.588
374.33	11.522
374.68	11.484
375.03	11.449
375.39	11.341
375.74	11.305
376.10	11.275
376.45	11.232
376.80	11.228
377.16	11.206
377.51	11.190
377.87	11.129
378.22	11.125
378.57	11.170
378.93	11.147
379.28	11.236
379.63	11.203
379.99	11.187
380.34	11.172
380.70	11.117
381.05	11.137
381.40	11.104
381.76	11.120
382.11	11.103
382.46	11.016
382.82	10.989
383.17	10.940
383.52	10.977
383.88	10.906
384.23	10.880
384.58	10.857
384.94	10.848
385.29	10.849
385.64	10.818
385.99	10.840
386.35	10.893
386.70	10.843
387.05	10.779
387.41	10.704
387.76	10.708
388.11	10.667
388.47	10.642
388.82	10.572
389.17	10.513
389.52	10.506
389.88	10.417
390.23	10.366
390.58	10.383
390.93	10.373
391.29	10.381
391.64	10.378
391.99	10.347
392.34	10.331
392.70	10.317
393.05	10.303
393.40	10.249
393.75	10.268
394.11	10.219
394.46	10.165
394.81	10.121
395.16	10.070
395.52	10.038
395.87	9.990
396.22	9.936
396.57	9.913
396.92	9.901
397.28	9.915
397.63	9.843
397.98	9.839
398.33	9.810
398.68	9.826
399.04	9.806
399.39	9.771
399.74	9.762
400.09	9.752
400.44	9.726
400.80	9.678
401.15	9.602
401.50	9.646
401.85	9.645
402.20	9.627
402.55	9.600
402.90	9.584
403.26	9.601
403.61	9.603
403.96	9.612
404.31	9.611
404.66	9.614
405.01	9.636
405.36	9.619
405.72	9.577
406.07	9.584
406.42	9.574
406.77	9.567
407.12	9.514
407.47	9.534
407.82	9.506
408.17	9.503
408.53	9.499
408.88	9.514
409.23	9.477
409.58	9.471
409.93	9.433
410.28	9.427
410.63	9.414
410.98	9.439
411.33	9.408
411.68	9.387
412.03	9.348
412.38	9.311
412.73	9.243
413.09	9.232
413.44	9.213
413.79	9.228
414.14	9.170
414.49	9.136
414.84	9.100
415.19	9.076
415.54	9.060
415.89	9.032
416.24	9.006
416.59	8.992
416.94	8.975
417.29	8.966
417.64	8.925
417.99	8.937
418.34	8.928
418.69	8.901
419.04	8.882
419.39	8.878
419.74	8.872
420.09	8.873
420.44	8.871
420.79	8.852
421.14	8.834
421.49	8.845
421.84	8.830
422.19	8.826
422.54	8.848
422.89	8.847
423.24	8.844
423.59	8.860
423.94	8.857
424.29	8.861
424.64	8.878
424.99	8.919
425.34	8.940
425.68	8.967
426.03	8.999
426.38	9.012
426.73	9.021
427.08	9.036
427.43	9.042
427.78	9.047
428.13	9.067
428.48	9.056
428.83	9.029
429.18	8.984
429.53	8.954
429.87	8.943
430.22	8.898
430.57	8.901
430.92	8.868
431.27	8.864
431.62	8.857
431.97	8.821
432.32	8.827
432.67	8.819
433.01	8.836
433.36	8.853
433.71	8.838
434.06	8.851
434.41	8.847
434.76	8.876
435.11	8.860
435.45	8.860
435.80	8.861
436.15	8.845
436.50	8.831
436.85	8.820
437.20	8.818
437.54	8.816
437.89	8.806
438.24	8.803
438.59	8.786
438.94	8.783
439.29	8.786
439.63	8.797
439.98	8.808
440.33	8.784
440.68	8.792
441.03	8.780
441.37	8.770
441.72	8.765
442.07	8.745
442.42	8.738
442.76	8.738
443.11	8.727
443.46	8.697
443.81	8.699
444.16	8.723
444.50	8.703
444.85	8.710
445.20	8.719
445.55	8.728
445.89	8.739
446.24	8.733
446.59	8.734
446.94	8.734
447.28	8.771
447.63	8.779
447.98	8.792
448.32	8.816
448.67	8.800
449.02	8.801
449.37	8.798
449.71	8.813
450.06	8.817
450.41	8.824
450.75	8.834
451.10	8.826
451.45	8.816
451.79	8.790
452.14	8.790
452.49	8.800
452.84	8.793
453.18	8.784
453.53	8.787
453.88	8.788
454.22	8.772
454.57	8.749
454.92	8.758
455.26	8.738
455.61	8.754
455.95	8.743
456.30	8.740
456.65	8.753
456.99	8.771
457.34	8.768
457.69	8.796
458.03	8.819
458.38	8.844
458.73	8.854
459.07	8.892
459.42	8.906
459.76	8.933
460.11	8.949
460.46	8.952
460.80	8.978
461.15	9.002
461.49	9.011
461.84	9.027
462.19	9.052
462.53	9.067
462.88	9.060
463.22	9.082
463.57	9.113
463.91	9.139
464.26	9.166
464.61	9.165
464.95	9.191
465.30	9.194
465.64	9.199
465.99	9.210
466.33	9.208
466.68	9.231
467.02	9.224
467.37	9.225
467.71	9.228
468.06	9.228
468.41	9.221
468.75	9.193
469.10	9.196
469.44	9.190
469.79	9.175
470.13	9.208
470.48	9.181
470.82	9.188
471.17	9.184
471.51	9.173
471.86	9.163
472.20	9.175
472.55	9.197
472.89	9.186
473.23	9.161
473.58	9.150
473.92	9.101
474.27	9.097
474.61	9.076
474.96	9.048
475.30	9.015
475.65	9.005
475.99	8.980
476.34	8.954
476.68	8.940
477.02	8.951
477.37	8.946
477.71	8.941
478.06	8.935
478.40	8.920
478.75	8.942
479.09	8.989
479.43	9.037
479.78	9.120
480.12	9.213
480.47	9.330
480.81	9.455
481.15	9.591
481.50	9.730
481.84	9.892
482.19	10.081
482.53	10.235
482.87	10.311
483.22	10.302
483.56	10.197
483.90	10.042
484.25	9.843
484.59	9.652
484.94	9.500
485.28	9.356
485.62	9.177
485.97	8.971
486.31	8.789
486.65	8.683
487.00	8.650
487.34	8.703
487.68	8.786
488.03	8.902
488.37	8.995
488.71	9.027
489.06	9.033
489.40	9.029
489.74	9.027
490.09	9.033
490.43	9.025
490.77	9.030
491.11	9.024
491.46	9.039
491.80	9.032
492.14	9.014
492.49	9.002
492.83	8.986
493.17	8.980
493.51	8.971
493.86	8.948
494.20	8.939
494.54	8.915
494.88	8.914
495.23	8.912
495.57	8.923
495.91	8.948
496.25	8.941
496.60	8.951
496.94	8.967
497.28	8.985
497.62	8.987
497.97	8.994
498.31	9.039
498.65	9.046
498.99	9.057
499.33	9.072
499.68	9.084
500.02	9.097
500.36	9.105
500.70	9.101
501.04	9.110
501.39	9.128
501.73	9.164
502.07	9.160
502.41	9.175
502.75	9.178
503.09	9.202
503.44	9.232
503.78	9.261
504.12	9.287
504.46	9.318
504.80	9.340
505.14	9.362
505.49	9.366
505.83	9.392
506.17	9.431
506.51	9.445
506.85	9.465
507.19	9.475
507.53	9.489
507.87	9.511
508.22	9.530
508.56	9.537
508.90	9.563
509.24	9.587
509.58	9.605
509.92	9.614
510.26	9.642
510.60	9.686
510.94	9.688
511.28	9.720
511.63	9.740
511.97	9.760
512.31	9.799
512.65	9.807
512.99	9.813
513.33	9.834
513.67	9.865
514.01	9.901
514.35	9.891
514.69	9.915
515.03	9.922
515.37	9.943
515.71	9.963
516.05	9.966
516.39	9.973
516.73	10.005
517.07	10.016
517.41	10.014
517.75	10.010
518.09	10.020
518.43	10.023
518.77	10.046
519.11	10.057
519.45	10.064
519.79	10.078
520.13	10.099
520.47	10.094
520.81	10.099
521.15	10.101
521.49	10.108
521.83	10.105
522.17	10.132
522.51	10.136
522.85	10.133
523.19	10.132
523.53	10.153
523.87	10.185
524.21	10.228
524.55	10.261
524.89	10.295
525.23	10.330
525.57	10.368
525.91	10.393
526.25	10.412
526.58	10.442
526.92	10.467
527.26	10.480
527.60	10.473
527.94	10.460
528.28	10.450
528.62	10.425
528.96	10.398
529.30	10.361
529.64	10.326
529.97	10.296
530.31	10.251
530.65	10.215
530.99	10.178
531.33	10.156
531.67	10.143
532.01	10.117
532.35	10.115
532.68	10.096
533.02	10.088
533.36	10.069
533.70	10.057
534.04	10.045
534.38	10.027
534.71	10.018
535.05	10.009
535.39	9.981
535.73	9.977
536.07	9.962
536.41	9.964
536.74	9.954
537.08	9.954
537.42	9.954
537.76	9.948
538.10	9.956
538.43	9.956
538.77	9.958
539.11	9.962
539.45	9.956
539.79	9.961
540.12	9.966
540.46	9.964
540.80	9.955
541.14	9.946
541.47	9.942
541.81	9.927
542.15	9.929
542.49	9.911
542.82	9.894
543.16	9.886
543.50	9.855
543.84	9.828
544.17	9.828
544.51	9.836
544.85	9.824
545.18	9.820
545.52	9.810
545.86	9.777
546.20	9.761
546.53	9.769
546.87	9.752
547.21	9.760
547.54	9.745
547.88	9.720
548.22	9.695
548.55	9.684
548.89	9.678
549.23	9.685
549.56	9.666
549.90	9.686
550.24	9.672
550.57	9.687
550.91	9.656
551.25	9.662
551.58	9.649
551.92	9.642
552.26	9.632
552.59	9.612
552.93	9.603
553.27	9.636
553.60	9.609
553.94	9.617
554.27	9.605
554.61	9.643
554.95	9.669
555.28	9.679
555.62	9.681
555.95	9.698
556.29	9.720
556.63	9.733
556.96	9.703
557.30	9.716
557.63	9.702
557.97	9.694
558.31	9.691
558.64	9.673
558.98	9.675
559.31	9.691
559.65	9.689
559.98	9.666
560.32	9.650
560.65	9.667
560.99	9.668
561.33	9.662
561.66	9.679
562.00	9.667
562.33	9.659
562.67	9.660
563.00	9.658
563.34	9.657
563.67	9.675
564.01	9.680
564.34	9.665
564.68	9.666
565.01	9.675
565.35	9.669
565.68	9.679
566.02	9.684
566.35	9.701
566.69	9.709
567.02	9.703
567.36	9.709
567.69	9.708
568.03	9.727
568.36	9.717
568.69	9.714
569.03	9.726
569.36	9.747
569.70	9.732
570.03	9.722
570.37	9.716
570.70	9.731
571.04	9.728
571.37	9.720
571.70	9.700
572.04	9.703
572.37	9.701
572.71	9.697
573.04	9.693
573.37	9.711
573.71	9.713
574.04	9.735
574.38	9.733
574.71	9.749
575.04	9.781
575.38	9.798
575.71	9.830
576.05	9.881
576.38	9.886
576.71	9.880
577.05	9.890
577.38	9.936
577.71	9.934
578.05	9.936
578.38	9.927
578.71	9.941
579.05	9.960
579.38	9.964
579.71	9.927
580.05	9.931
580.38	9.952
580.71	9.953
581.05	9.936
581.38	9.944
581.71	9.979
582.05	9.983
582.38	9.974
582.71	9.978
583.04	9.987
583.38	10.027
583.71	10.045
584.04	10.059
584.38	10.071
584.71	10.075
585.04	10.099
585.37	10.095
585.71	10.118
586.04	10.163
586.37	10.192
586.70	10.225
587.04	10.243
587.37	10.279
587.70	10.289
588.03	10.330
588.37	10.355
588.70	10.337
589.03	10.344
589.36	10.355
589.69	10.333
590.03	10.334
590.36	10.319
590.69	10.323
591.02	10.339
591.35	10.341
591.69	10.322
592.02	10.324
592.35	10.353
592.68	10.379
593.01	10.425
593.35	10.482
593.68	10.525
594.01	10.562
594.34	10.592
594.67	10.591
595.00	10.631
595.34	10.648
595.67	10.681
596.00	10.722
596.33	10.769
596.66	10.786
596.99	10.811
597.32	10.862
597.65	10.904
597.99	10.927
598.32	10.964
598.65	11.009
598.98	11.071
599.31	11.118
599.64	11.138
599.97	11.172
600.30	11.167
600.63	11.173
600.96	11.159
601.30	11.167
601.63	11.172
601.96	11.211
602.29	11.250
602.62	11.296
602.95	11.326
603.28	11.351
603.61	11.373
603.94	11.432
604.27	11.456
604.60	11.485
604.93	11.513
605.26	11.567
605.59	11.597
605.92	11.596
606.25	11.601
606.58	11.628
606.91	11.673
607.24	11.692
607.57	11.714
607.90	11.748
608.23	11.776
608.56	11.811
608.89	11.846
609.22	11.879
609.55	11.914
609.88	11.921
610.21	11.917
610.54	11.949
610.87	11.989
611.20	12.008
611.53	12.047
611.86	12.085
612.19	12.124
612.52	12.108
612.85	12.105
613.18	12.117
613.51	12.128
613.84	12.159
614.17	12.161
614.49	12.170
614.82	12.208
615.15	12.198
615.48	12.209
615.81	12.223
616.14	12.243
616.47	12.271
616.80	12.286
617.13	12.318
617.46	12.319
617.78	12.294
618.11	12.270
618.44	12.257
618.77	12.261
619.10	12.275
619.43	12.281
619.76	12.312
620.09	12.301
620.41	12.297
620.74	12.319
621.07	12.330
621.40	12.353
621.73	12.367
622.06	12.394
622.38	12.388
622.71	12.345
623.04	12.306
623.37	12.291
623.70	12.278
624.02	12.250
624.35	12.230
624.68	12.235
625.01	12.240
625.34	12.253
625.66	12.247
625.99	12.261
626.32	12.291
626.65	12.321
626.98	12.338
627.30	12.360
627.63	12.393
627.96	12.417
628.29	12.417
628.61	12.431
628.94	12.431
629.27	12.420
629.60	12.449
629.92	12.413
630.25	12.420
630.58	12.410
630.91	12.402
631.23	12.376
631.56	12.369
631.89	12.389
632.21	12.396
632.54	12.368
632.87	12.356
633.19	12.325
633.52	12.358
633.85	12.360
634.18	12.349
634.50	12.329
634.83	12.351
635.16	12.360
635.48	12.355
635.81	12.296
636.14	12.303
636.46	12.279
636.79	12.277
637.11	12.300
637.44	12.300
637.77	12.266
638.09	12.255
638.42	12.239
638.75	12.238
639.07	12.220
639.40	12.217
639.73	12.247
640.05	12.290
640.38	12.294
640.70	12.284
641.03	12.236
641.36	12.272
641.68	12.262
642.01	12.254
642.33	12.225
642.66	12.237
642.98	12.297
643.31	12.272
643.64	12.274
643.96	12.288
644.29	12.234
