OOIBase32 Version 2.0.0.6 Data File
++++++++++++++++++++++++++++++++++++
Date: 01-23-2012, 21:41:47
User: Valued Ocean Optics Customer
Spectrometer Serial Number: USB2E2917
Spectrometer Channel: Master
Integration Time (msec): 5
Spectra Averaged: 10
Boxcar Smoothing: 5
Correct for Electrical Dark: Enabled
Time Normalized: Disabled
Dual-beam Reference: Disabled
Reference Channel: Master
Temperature: Not acquired
Spectrometer Type: S2000
ADC Type: USB2000
Number of Pixels in File: 2048
Graph Title: 
>>>>>Begin Spectral Data<<<<<
180.30	0.000
180.67	0.000
181.03	168.242
181.40	-231.327
181.77	2110.667
182.14	17.909
182.51	115.608
182.88	3540.784
183.25	297.499
183.62	38.070
183.99	54.065
184.36	-166.811
184.73	162.849
185.10	10.159
185.46	117.546
185.83	-72.441
186.20	-95.681
186.57	237.874
186.94	-4.674
187.31	158.718
187.68	-233.656
188.05	30.771
188.42	15.722
188.78	16.087
189.15	25.922
189.52	33.335
189.89	21.601
190.26	9.477
190.63	25.784
191.00	15.824
191.37	23.941
191.73	25.149
192.10	14.063
192.47	2.526
192.84	-1.345
193.21	-8.798
193.58	-2.179
193.94	-4.396
194.31	-8.834
194.68	-6.609
195.05	-10.132
195.42	-16.979
195.79	-13.914
196.15	-3.495
196.52	4.742
196.89	5.190
197.26	4.004
197.63	-3.318
198.00	-1.757
198.36	7.449
198.73	0.270
199.10	5.138
199.47	8.777
199.84	-0.574
200.20	6.172
200.57	-0.008
200.94	-3.385
201.31	-8.407
201.68	11.941
202.04	13.722
202.41	22.838
202.78	20.831
203.15	21.165
203.51	12.169
203.88	26.041
204.25	18.641
204.62	21.860
204.98	34.642
205.35	44.702
205.72	46.975
206.09	43.078
206.46	34.110
206.82	33.001
207.19	16.664
207.56	18.809
207.92	8.024
208.29	17.519
208.66	10.215
209.03	7.769
209.39	-8.519
209.76	-8.716
210.13	-8.157
210.50	-6.424
210.86	8.567
211.23	31.510
211.60	25.423
211.96	29.428
212.33	20.743
212.70	27.321
213.07	17.008
213.43	33.135
213.80	26.267
214.17	23.043
214.53	23.076
214.90	18.366
215.27	16.512
215.63	16.343
216.00	10.149
216.37	11.089
216.74	1.065
217.10	5.702
217.47	-7.654
217.84	-6.791
218.20	7.103
218.57	6.956
218.94	3.026
219.30	-5.548
219.67	-7.493
220.04	-6.534
220.40	-11.060
220.77	-14.802
221.13	-13.072
221.50	-11.492
221.87	-8.577
222.23	-14.696
222.60	-7.292
222.97	-6.843
223.33	-8.282
223.70	-9.280
224.07	-1.204
224.43	5.123
224.80	9.482
225.16	11.546
225.53	9.412
225.90	4.819
226.26	1.523
226.63	-1.414
226.99	-0.323
227.36	-0.054
227.73	0.787
228.09	-4.078
228.46	-4.926
228.82	-5.571
229.19	-7.043
229.56	-8.339
229.92	-6.226
230.29	-3.064
230.65	-1.462
231.02	-2.150
231.38	-3.310
231.75	-0.272
232.12	3.414
232.48	3.971
232.85	5.097
233.21	7.289
233.58	8.402
233.94	10.295
234.31	8.462
234.68	7.720
235.04	7.897
235.41	7.044
235.77	4.135
236.14	2.824
236.50	1.034
236.87	1.634
237.23	0.294
237.60	1.119
237.96	0.249
238.33	1.857
238.69	2.376
239.06	2.259
239.42	3.494
239.79	4.071
240.15	3.869
240.52	4.194
240.88	3.601
241.25	3.999
241.61	4.116
241.98	4.370
242.34	3.717
242.71	4.114
243.07	4.530
243.44	4.329
243.80	3.821
244.17	3.947
244.53	3.905
244.90	3.741
245.26	3.469
245.63	2.950
245.99	2.734
246.36	3.021
246.72	2.654
247.09	2.349
247.45	2.172
247.81	2.323
248.18	2.022
248.54	1.963
248.91	1.707
249.27	1.911
249.64	2.152
250.00	1.965
250.36	1.344
250.73	1.417
251.09	1.588
251.46	1.573
251.82	1.949
252.19	2.958
252.55	3.009
252.91	3.363
253.28	2.868
253.64	3.279
254.01	3.515
254.37	3.803
254.73	3.848
255.10	3.911
255.46	3.870
255.83	3.428
256.19	3.113
256.55	3.057
256.92	2.902
257.28	3.104
257.65	3.214
258.01	3.336
258.37	3.274
258.74	3.103
259.10	2.932
259.46	3.168
259.83	3.257
260.19	3.092
260.55	3.009
260.92	3.087
261.28	2.932
261.64	2.633
262.01	2.163
262.37	2.041
262.73	2.176
263.10	2.235
263.46	1.995
263.82	1.989
264.19	2.055
264.55	2.140
264.91	2.279
265.28	2.855
265.64	2.800
266.00	2.794
266.37	2.949
266.73	3.223
267.09	3.295
267.46	3.356
267.82	3.269
268.18	3.667
268.54	3.757
268.91	3.884
269.27	3.597
269.63	3.712
270.00	3.974
270.36	3.816
270.72	3.478
271.08	3.055
271.45	2.875
271.81	3.070
272.17	2.770
272.53	2.508
272.90	2.354
273.26	2.333
273.62	2.292
273.98	2.259
274.35	2.335
274.71	2.507
275.07	2.992
275.43	3.224
275.80	3.225
276.16	3.457
276.52	3.571
276.88	3.537
277.25	3.434
277.61	3.539
277.97	3.489
278.33	3.132
278.69	2.880
279.06	3.048
279.42	2.791
279.78	2.695
280.14	2.522
280.50	2.511
280.87	2.606
281.23	2.602
281.59	2.476
281.95	2.399
282.31	2.697
282.68	2.770
283.04	2.641
283.40	2.814
283.76	2.517
284.12	2.648
284.48	2.795
284.85	2.812
285.21	2.762
285.57	2.898
285.93	2.927
286.29	2.848
286.65	3.037
287.02	2.929
287.38	2.834
287.74	3.168
288.10	2.922
288.46	2.694
288.82	2.338
289.18	2.371
289.54	2.230
289.91	2.530
290.27	2.652
290.63	2.680
290.99	2.569
291.35	2.460
291.71	2.490
292.07	2.519
292.43	2.689
292.79	3.332
293.16	3.429
293.52	3.491
293.88	3.302
294.24	3.311
294.60	2.982
294.96	3.126
295.32	3.206
295.68	3.047
296.04	3.117
296.40	3.105
296.76	2.964
297.12	3.015
297.49	2.952
297.85	2.980
298.21	3.024
298.57	3.190
298.93	3.371
299.29	3.478
299.65	3.479
300.01	3.552
300.37	3.408
300.73	3.521
301.09	3.544
301.45	3.770
301.81	3.827
302.17	3.864
302.53	3.947
302.89	3.856
303.25	3.696
303.61	3.917
303.97	3.967
304.33	4.192
304.69	3.954
305.05	3.850
305.41	3.679
305.77	3.727
306.13	3.642
306.49	3.663
306.85	3.687
307.21	4.062
307.57	3.936
307.93	3.990
308.29	4.038
308.65	4.136
309.01	4.224
309.37	4.408
309.73	4.454
310.09	4.620
310.45	4.688
310.81	4.635
311.17	4.373
311.53	4.353
311.89	4.435
312.25	4.419
312.61	4.457
312.96	4.629
313.32	4.622
313.68	4.531
314.04	4.548
314.40	4.609
314.76	4.748
315.12	4.934
315.48	5.160
315.84	5.039
316.20	5.153
316.56	5.284
316.92	5.301
317.27	5.303
317.63	5.504
317.99	5.481
318.35	5.469
318.71	5.456
319.07	5.522
319.43	5.689
319.79	5.812
320.15	5.776
320.50	5.708
320.86	5.795
321.22	5.913
321.58	5.901
321.94	5.798
322.30	5.914
322.66	6.130
323.01	6.224
323.37	6.142
323.73	6.246
324.09	6.514
324.45	6.657
324.81	6.608
325.17	6.668
325.52	6.702
325.88	6.784
326.24	6.876
326.60	6.967
326.96	7.083
327.31	7.181
327.67	7.311
328.03	7.186
328.39	7.170
328.75	7.292
329.11	7.357
329.46	7.430
329.82	7.618
330.18	7.660
330.54	7.605
330.90	7.566
331.25	7.564
331.61	7.453
331.97	7.453
332.33	7.610
332.68	7.452
333.04	7.447
333.40	7.596
333.76	7.639
334.11	7.591
334.47	7.536
334.83	7.519
335.19	7.561
335.54	7.712
335.90	7.788
336.26	7.819
336.62	7.915
336.97	7.773
337.33	7.617
337.69	7.616
338.05	7.656
338.40	7.732
338.76	7.801
339.12	7.789
339.48	7.741
339.83	7.783
340.19	7.598
340.55	7.657
340.90	7.715
341.26	7.691
341.62	7.645
341.97	7.703
342.33	7.828
342.69	7.779
343.04	7.853
343.40	7.844
343.76	7.924
344.12	8.095
344.47	8.148
344.83	8.213
345.19	8.276
345.54	8.329
345.90	8.301
346.26	8.138
346.61	8.202
346.97	8.146
347.32	8.244
347.68	8.142
348.04	8.066
348.39	8.050
348.75	8.153
349.11	8.139
349.46	8.086
349.82	8.097
350.18	8.232
350.53	8.128
350.89	8.227
351.24	8.098
351.60	8.151
351.96	8.175
352.31	8.179
352.67	8.141
353.02	8.234
353.38	8.247
353.74	8.193
354.09	8.158
354.45	8.302
354.80	8.227
355.16	8.256
355.52	8.235
355.87	8.198
356.23	8.146
356.58	8.169
356.94	8.119
357.29	8.159
357.65	8.156
358.00	8.126
358.36	8.032
358.72	8.137
359.07	8.253
359.43	8.316
359.78	8.387
360.14	8.406
360.49	8.382
360.85	8.425
361.20	8.505
361.56	8.580
361.91	8.572
362.27	8.609
362.62	8.478
362.98	8.434
363.33	8.368
363.69	8.310
364.04	8.344
364.40	8.376
364.75	8.398
365.11	8.365
365.46	8.374
365.82	8.373
366.17	8.354
366.53	8.453
366.88	8.436
367.24	8.491
367.59	8.642
367.95	8.657
368.30	8.604
368.66	8.564
369.01	8.551
369.37	8.561
369.72	8.591
370.08	8.679
370.43	8.644
370.78	8.616
371.14	8.634
371.49	8.592
371.85	8.569
372.20	8.666
372.56	8.740
372.91	8.727
373.26	8.748
373.62	8.707
373.97	8.684
374.33	8.732
374.68	8.776
375.03	8.769
375.39	8.684
375.74	8.705
376.10	8.708
376.45	8.687
376.80	8.718
377.16	8.702
377.51	8.794
377.87	8.793
378.22	8.835
378.57	8.893
378.93	8.934
379.28	9.063
379.63	9.097
379.99	9.124
380.34	9.161
380.70	9.205
381.05	9.248
381.40	9.278
381.76	9.347
382.11	9.387
382.46	9.367
382.82	9.363
383.17	9.341
383.52	9.381
383.88	9.375
384.23	9.400
384.58	9.387
384.94	9.397
385.29	9.415
385.64	9.435
385.99	9.444
386.35	9.505
386.70	9.552
387.05	9.562
387.41	9.580
387.76	9.595
388.11	9.580
388.47	9.641
388.82	9.629
389.17	9.628
389.52	9.599
389.88	9.592
390.23	9.567
390.58	9.550
390.93	9.553
391.29	9.596
391.64	9.635
391.99	9.630
392.34	9.636
392.70	9.631
393.05	9.654
393.40	9.643
393.75	9.630
394.11	9.614
394.46	9.622
394.81	9.604
395.16	9.533
395.52	9.525
395.87	9.532
396.22	9.501
396.57	9.507
396.92	9.483
397.28	9.542
397.63	9.516
397.98	9.552
398.33	9.554
398.68	9.571
399.04	9.603
399.39	9.538
399.74	9.536
400.09	9.518
400.44	9.537
400.80	9.514
401.15	9.471
401.50	9.501
401.85	9.498
402.20	9.482
402.55	9.518
402.90	9.497
403.26	9.526
403.61	9.553
403.96	9.576
404.31	9.537
404.66	9.560
405.01	9.568
405.36	9.580
405.72	9.572
406.07	9.601
406.42	9.562
406.77	9.565
407.12	9.544
407.47	9.531
407.82	9.530
408.17	9.555
408.53	9.554
408.88	9.551
409.23	9.544
409.58	9.506
409.93	9.476
410.28	9.457
410.63	9.436
410.98	9.445
411.33	9.389
411.68	9.342
412.03	9.310
412.38	9.306
412.73	9.271
413.09	9.220
413.44	9.222
413.79	9.208
414.14	9.200
414.49	9.156
414.84	9.113
415.19	9.101
415.54	9.096
415.89	9.062
416.24	9.011
416.59	8.991
416.94	8.972
417.29	8.947
417.64	8.918
417.99	8.899
418.34	8.883
418.69	8.864
419.04	8.846
419.39	8.834
419.74	8.820
420.09	8.825
420.44	8.802
420.79	8.793
421.14	8.771
421.49	8.758
421.84	8.764
422.19	8.778
422.54	8.804
422.89	8.802
423.24	8.791
423.59	8.804
423.94	8.799
424.29	8.798
424.64	8.774
424.99	8.796
425.34	8.813
425.68	8.784
426.03	8.769
426.38	8.755
426.73	8.768
427.08	8.776
427.43	8.759
427.78	8.755
428.13	8.787
428.48	8.828
428.83	8.838
429.18	8.790
429.53	8.798
429.87	8.815
430.22	8.803
430.57	8.807
430.92	8.788
431.27	8.805
431.62	8.804
431.97	8.805
432.32	8.816
432.67	8.817
433.01	8.841
433.36	8.859
433.71	8.843
434.06	8.846
434.41	8.848
434.76	8.879
435.11	8.885
435.45	8.882
435.80	8.878
436.15	8.866
436.50	8.861
436.85	8.874
437.20	8.866
437.54	8.871
437.89	8.857
438.24	8.863
438.59	8.852
438.94	8.856
439.29	8.858
439.63	8.844
439.98	8.842
440.33	8.824
440.68	8.812
441.03	8.800
441.37	8.768
441.72	8.772
442.07	8.734
442.42	8.721
442.76	8.689
443.11	8.676
443.46	8.664
443.81	8.631
444.16	8.606
444.50	8.568
444.85	8.555
445.20	8.549
445.55	8.523
445.89	8.511
446.24	8.488
446.59	8.473
446.94	8.466
447.28	8.448
447.63	8.440
447.98	8.430
448.32	8.455
448.67	8.431
449.02	8.427
449.37	8.411
449.71	8.410
450.06	8.397
450.41	8.395
450.75	8.367
451.10	8.334
451.45	8.346
451.79	8.353
452.14	8.352
452.49	8.349
452.84	8.354
453.18	8.361
453.53	8.369
453.88	8.387
454.22	8.381
454.57	8.396
454.92	8.431
455.26	8.439
455.61	8.455
455.95	8.467
456.30	8.491
456.65	8.507
456.99	8.532
457.34	8.542
457.69	8.570
458.03	8.580
458.38	8.597
458.73	8.632
459.07	8.650
459.42	8.668
459.76	8.679
460.11	8.703
460.46	8.718
460.80	8.750
461.15	8.780
461.49	8.790
461.84	8.846
462.19	8.886
462.53	8.908
462.88	8.931
463.22	8.977
463.57	9.002
463.91	9.036
464.26	9.069
464.61	9.090
464.95	9.130
465.30	9.170
465.64	9.186
465.99	9.200
466.33	9.208
466.68	9.247
467.02	9.266
467.37	9.307
467.71	9.332
468.06	9.361
468.41	9.381
468.75	9.396
469.10	9.390
469.44	9.410
469.79	9.441
470.13	9.481
470.48	9.468
470.82	9.462
471.17	9.460
471.51	9.453
471.86	9.453
472.20	9.461
472.55	9.465
472.89	9.464
473.23	9.454
473.58	9.425
473.92	9.408
474.27	9.413
474.61	9.412
474.96	9.397
475.30	9.381
475.65	9.376
475.99	9.354
476.34	9.332
476.68	9.321
477.02	9.307
477.37	9.313
477.71	9.303
478.06	9.308
478.40	9.328
478.75	9.366
479.09	9.416
479.43	9.481
479.78	9.571
480.12	9.690
480.47	9.824
480.81	9.968
481.15	10.109
481.50	10.266
481.84	10.449
482.19	10.640
482.53	10.802
482.87	10.889
483.22	10.883
483.56	10.793
483.90	10.635
484.25	10.429
484.59	10.240
484.94	10.104
485.28	9.965
485.62	9.787
485.97	9.596
486.31	9.431
486.65	9.347
487.00	9.344
487.34	9.415
487.68	9.538
488.03	9.700
488.37	9.826
488.71	9.884
489.06	9.920
489.40	9.950
489.74	9.978
490.09	10.008
490.43	10.025
490.77	10.049
491.11	10.078
491.46	10.122
491.80	10.165
492.14	10.203
492.49	10.248
492.83	10.297
493.17	10.352
493.51	10.419
493.86	10.490
494.20	10.581
494.54	10.667
494.88	10.773
495.23	10.866
495.57	10.956
495.91	11.069
496.25	11.162
496.60	11.249
496.94	11.361
497.28	11.464
497.62	11.594
497.97	11.719
498.31	11.863
498.65	11.977
498.99	12.101
499.33	12.260
499.68	12.416
500.02	12.583
500.36	12.761
500.70	12.926
501.04	13.096
501.39	13.245
501.73	13.439
502.07	13.613
502.41	13.820
502.75	13.992
503.09	14.177
503.44	14.383
503.78	14.596
504.12	14.804
504.46	15.000
504.80	15.219
505.14	15.436
505.49	15.612
505.83	15.817
506.17	16.024
506.51	16.249
506.85	16.441
507.19	16.639
507.53	16.844
507.87	17.052
508.22	17.297
508.56	17.503
508.90	17.736
509.24	17.989
509.58	18.224
509.92	18.443
510.26	18.664
510.60	18.920
510.94	19.161
511.28	19.400
511.63	19.659
511.97	19.869
512.31	20.114
512.65	20.349
512.99	20.581
513.33	20.829
513.67	21.106
514.01	21.358
514.35	21.612
514.69	21.852
515.03	22.078
515.37	22.284
515.71	22.491
516.05	22.684
516.39	22.857
516.73	23.016
517.07	23.168
517.41	23.330
517.75	23.481
518.09	23.621
518.43	23.769
518.77	23.908
519.11	24.078
519.45	24.248
519.79	24.398
520.13	24.579
520.47	24.771
520.81	24.977
521.15	25.124
521.49	25.314
521.83	25.459
522.17	25.597
522.51	25.748
522.85	25.886
523.19	26.081
523.53	26.342
523.87	26.584
524.21	26.835
524.55	27.055
524.89	27.273
525.23	27.485
525.57	27.687
525.91	27.865
526.25	28.045
526.58	28.196
526.92	28.309
527.26	28.381
527.60	28.423
527.94	28.432
528.28	28.433
528.62	28.434
528.96	28.415
529.30	28.400
529.64	28.400
529.97	28.355
530.31	28.331
530.65	28.323
530.99	28.328
531.33	28.367
531.67	28.435
532.01	28.493
532.35	28.526
532.68	28.567
533.02	28.597
533.36	28.600
533.70	28.628
534.04	28.640
534.38	28.646
534.71	28.677
535.05	28.726
535.39	28.732
535.73	28.758
536.07	28.824
536.41	28.896
536.74	28.976
537.08	29.057
537.42	29.160
537.76	29.254
538.10	29.336
538.43	29.403
538.77	29.454
539.11	29.525
539.45	29.605
539.79	29.631
540.12	29.652
540.46	29.649
540.80	29.651
541.14	29.605
541.47	29.588
541.81	29.580
542.15	29.555
542.49	29.522
542.82	29.485
543.16	29.445
543.50	29.424
543.84	29.402
544.17	29.408
544.51	29.415
544.85	29.453
545.18	29.463
545.52	29.479
545.86	29.501
546.20	29.527
546.53	29.536
546.87	29.549
547.21	29.570
547.54	29.564
547.88	29.618
548.22	29.644
548.55	29.681
548.89	29.708
549.23	29.709
549.56	29.733
549.90	29.739
550.24	29.757
550.57	29.746
550.91	29.740
551.25	29.751
551.58	29.686
551.92	29.698
552.26	29.691
552.59	29.690
552.93	29.710
553.27	29.721
553.60	29.727
553.94	29.758
554.27	29.762
554.61	29.801
554.95	29.880
555.28	29.933
555.62	29.950
555.95	29.984
556.29	29.988
556.63	30.001
556.96	29.964
557.30	29.975
557.63	29.962
557.97	30.002
558.31	29.999
558.64	30.006
558.98	29.992
559.31	29.958
559.65	29.926
559.98	29.926
560.32	29.909
560.65	29.900
560.99	29.881
561.33	29.841
561.66	29.792
562.00	29.787
562.33	29.733
562.67	29.718
563.00	29.744
563.34	29.746
563.67	29.749
564.01	29.739
564.34	29.720
564.68	29.717
565.01	29.729
565.35	29.735
565.68	29.722
566.02	29.683
566.35	29.707
566.69	29.666
567.02	29.653
567.36	29.621
567.69	29.614
568.03	29.639
568.36	29.621
568.69	29.626
569.03	29.619
569.36	29.602
569.70	29.589
570.03	29.524
570.37	29.501
570.70	29.502
571.04	29.487
571.37	29.459
571.70	29.462
572.04	29.451
572.37	29.413
572.71	29.399
573.04	29.398
573.37	29.405
573.71	29.433
574.04	29.449
574.38	29.452
574.71	29.475
575.04	29.491
575.38	29.470
575.71	29.473
576.05	29.493
576.38	29.525
576.71	29.530
577.05	29.550
577.38	29.553
577.71	29.577
578.05	29.552
578.38	29.532
578.71	29.535
579.05	29.524
579.38	29.528
579.71	29.517
580.05	29.480
580.38	29.496
580.71	29.479
581.05	29.469
581.38	29.432
581.71	29.478
582.05	29.507
582.38	29.511
582.71	29.531
583.04	29.533
583.38	29.551
583.71	29.547
584.04	29.504
584.38	29.483
584.71	29.441
585.04	29.427
585.37	29.379
585.71	29.316
586.04	29.282
586.37	29.210
586.70	29.164
587.04	29.099
587.37	29.068
587.70	29.019
588.03	29.006
588.37	28.960
588.70	28.909
589.03	28.882
589.36	28.895
589.69	28.858
590.03	28.851
590.36	28.824
590.69	28.828
591.02	28.783
591.35	28.803
591.69	28.739
592.02	28.739
592.35	28.685
592.68	28.615
593.01	28.545
593.35	28.500
593.68	28.428
594.01	28.366
594.34	28.316
594.67	28.270
595.00	28.208
595.34	28.177
595.67	28.141
596.00	28.147
596.33	28.129
596.66	28.127
596.99	28.110
597.32	28.148
597.65	28.189
597.99	28.196
598.32	28.200
598.65	28.191
598.98	28.165
599.31	28.164
599.64	28.142
599.97	28.135
600.30	28.037
600.63	27.982
600.96	27.893
601.30	27.817
601.63	27.759
601.96	27.740
602.29	27.682
602.62	27.684
602.95	27.672
603.28	27.638
603.61	27.632
603.94	27.632
604.27	27.629
604.60	27.636
604.93	27.635
605.26	27.617
605.59	27.575
605.92	27.601
606.25	27.553
606.58	27.518
606.91	27.508
607.24	27.458
607.57	27.415
607.90	27.391
608.23	27.358
608.56	27.304
608.89	27.259
609.22	27.270
609.55	27.254
609.88	27.261
610.21	27.238
610.54	27.245
610.87	27.261
611.20	27.298
611.53	27.308
611.86	27.329
612.19	27.399
612.52	27.414
612.85	27.396
613.18	27.377
613.51	27.329
613.84	27.325
614.17	27.307
614.49	27.261
614.82	27.279
615.15	27.248
615.48	27.208
615.81	27.178
616.14	27.183
616.47	27.188
616.80	27.166
617.13	27.176
617.46	27.127
617.78	27.101
618.11	27.090
618.44	27.028
618.77	27.019
619.10	27.001
619.43	26.934
619.76	26.923
620.09	26.892
620.41	26.858
620.74	26.818
621.07	26.772
621.40	26.701
621.73	26.632
622.06	26.559
622.38	26.499
622.71	26.417
623.04	26.359
623.37	26.257
623.70	26.167
624.02	26.088
624.35	26.072
624.68	26.019
625.01	25.958
625.34	25.909
625.66	25.911
625.99	25.868
626.32	25.846
626.65	25.853
626.98	25.867
627.30	25.896
627.63	25.869
627.96	25.861
628.29	25.857
628.61	25.870
628.94	25.826
629.27	25.773
629.60	25.790
629.92	25.749
630.25	25.700
630.58	25.666
630.91	25.624
631.23	25.623
631.56	25.565
631.89	25.581
632.21	25.553
632.54	25.542
632.87	25.568
633.19	25.529
633.52	25.532
633.85	25.541
634.18	25.485
634.50	25.432
634.83	25.418
635.16	25.429
635.48	25.384
635.81	25.375
636.14	25.427
636.46	25.376
636.79	25.380
637.11	25.406
637.44	25.345
637.77	25.319
638.09	25.302
638.42	25.270
638.75	25.219
639.07	25.177
639.40	25.149
639.73	25.115
640.05	25.163
640.38	25.115
640.70	25.067
641.03	25.086
641.36	25.127
641.68	25.079
642.01	25.037
642.33	25.032
642.66	25.030
642.98	24.959
643.31	24.880
643.64	24.771
643.96	24.691
644.29	24.663
644.61	24.600
644.94	24.514
645.26	24.473
645.59	24.478
645.91	24.457
646.24	24.432
646.56	24.383
646.89	24.345
647.22	24.340
647.54	24.317
647.87	24.276
648.19	24.259
648.52	24.258
648.84	24.276
