OOIBase32 Version 2.0.0.6 Data File
++++++++++++++++++++++++++++++++++++
Date: 01-23-2012, 21:43:29
User: Valued Ocean Optics Customer
Spectrometer Serial Number: USB2E2917
Spectrometer Channel: Master
Integration Time (msec): 5
Spectra Averaged: 10
Boxcar Smoothing: 5
Correct for Electrical Dark: Enabled
Time Normalized: Disabled
Dual-beam Reference: Disabled
Reference Channel: Master
Temperature: Not acquired
Spectrometer Type: S2000
ADC Type: USB2000
Number of Pixels in File: 2048
Graph Title: 
>>>>>Begin Spectral Data<<<<<
180.30	0.000
180.67	0.000
181.03	304.194
181.40	-346.052
181.77	3542.667
182.14	263.656
182.51	183.231
182.88	8468.909
183.25	-36.532
183.62	-108.068
183.99	94.979
184.36	37.092
184.73	151.992
185.10	-81.290
185.46	-45.338
185.83	235.740
186.20	72.993
186.57	895.406
186.94	269.489
187.31	189.263
187.68	-164.859
188.05	-45.669
188.42	-32.579
188.78	-13.418
189.15	7.983
189.52	9.687
189.89	11.034
190.26	8.908
190.63	23.991
191.00	17.508
191.37	28.049
191.73	31.342
192.10	31.483
192.47	30.596
192.84	30.408
193.21	30.407
193.58	39.516
193.94	43.095
194.31	30.556
194.68	30.821
195.05	23.392
195.42	0.201
195.79	-8.353
196.15	-2.134
196.52	-1.635
196.89	-19.919
197.26	-14.794
197.63	-32.901
198.00	-39.610
198.36	-16.568
198.73	-17.030
199.10	-4.955
199.47	10.163
199.84	17.805
200.20	21.848
200.57	18.973
200.94	26.234
201.31	30.795
201.68	42.711
202.04	37.479
202.41	43.879
202.78	39.822
203.15	33.003
203.51	28.122
203.88	32.939
204.25	23.168
204.62	30.485
204.98	38.787
205.35	37.710
205.72	39.655
206.09	38.595
206.46	29.722
206.82	34.246
207.19	28.048
207.56	30.680
207.92	18.494
208.29	18.666
208.66	14.114
209.03	19.009
209.39	11.585
209.76	11.188
210.13	9.136
210.50	4.580
210.86	7.381
211.23	15.366
211.60	19.965
211.96	26.711
212.33	19.860
212.70	24.226
213.07	10.482
213.43	16.725
213.80	17.667
214.17	11.680
214.53	16.383
214.90	18.199
215.27	13.915
215.63	-1.974
216.00	-7.955
216.37	2.754
216.74	-4.102
217.10	13.651
217.47	2.548
217.84	2.403
218.20	16.922
218.57	15.527
218.94	7.744
219.30	1.095
219.67	3.386
220.04	2.649
220.40	1.753
220.77	-3.073
221.13	-17.425
221.50	-15.594
221.87	-16.988
222.23	-17.295
222.60	-14.848
222.97	-19.180
223.33	-10.488
223.70	-7.336
224.07	0.320
224.43	3.366
224.80	7.126
225.16	7.202
225.53	8.367
225.90	4.125
226.26	0.625
226.63	-0.782
226.99	3.043
227.36	1.857
227.73	2.693
228.09	-1.904
228.46	-3.183
228.82	-3.203
229.19	-2.079
229.56	-3.099
229.92	0.442
230.29	2.706
230.65	3.166
231.02	3.255
231.38	2.490
231.75	1.517
232.12	6.012
232.48	7.214
232.85	6.218
233.21	7.462
233.58	8.748
233.94	8.631
234.31	6.846
234.68	6.331
235.04	4.444
235.41	6.611
235.77	6.892
236.14	5.838
236.50	3.477
236.87	3.519
237.23	0.982
237.60	1.092
237.96	0.833
238.33	2.833
238.69	3.859
239.06	3.965
239.42	3.509
239.79	3.172
240.15	3.356
240.52	3.437
240.88	3.680
241.25	4.401
241.61	4.126
241.98	4.331
242.34	3.672
242.71	3.850
243.07	4.208
243.44	4.298
243.80	4.509
244.17	4.346
244.53	4.529
244.90	4.199
245.26	4.185
245.63	4.214
245.99	3.995
246.36	4.135
246.72	3.427
247.09	3.079
247.45	2.517
247.81	2.263
248.18	1.954
248.54	1.741
248.91	1.652
249.27	1.903
249.64	1.933
250.00	2.309
250.36	2.183
250.73	2.511
251.09	2.621
251.46	2.966
251.82	3.480
252.19	3.893
252.55	4.178
252.91	4.337
253.28	3.509
253.64	3.552
254.01	3.358
254.37	3.024
254.73	3.462
255.10	3.789
255.46	4.103
255.83	3.736
256.19	3.792
256.55	3.618
256.92	3.748
257.28	3.951
257.65	3.871
258.01	3.688
258.37	3.723
258.74	3.646
259.10	3.550
259.46	3.522
259.83	3.686
260.19	3.435
260.55	3.467
260.92	3.390
261.28	3.151
261.64	2.794
262.01	2.862
262.37	3.101
262.73	2.801
263.10	3.024
263.46	3.245
263.82	2.836
264.19	2.955
264.55	2.996
264.91	3.022
265.28	3.217
265.64	3.445
266.00	3.364
266.37	3.174
266.73	3.556
267.09	3.376
267.46	3.588
267.82	3.699
268.18	3.719
268.54	3.549
268.91	3.823
269.27	3.887
269.63	3.840
270.00	3.900
270.36	3.927
270.72	3.866
271.08	3.418
271.45	3.171
271.81	3.329
272.17	3.394
272.53	3.282
272.90	2.902
273.26	2.853
273.62	2.981
273.98	2.895
274.35	2.563
274.71	2.727
275.07	3.011
275.43	3.233
275.80	3.144
276.16	3.309
276.52	3.278
276.88	3.363
277.25	2.978
277.61	2.942
277.97	2.912
278.33	2.887
278.69	2.622
279.06	2.748
279.42	2.252
279.78	2.021
280.14	1.811
280.50	1.977
280.87	2.107
281.23	2.509
281.59	2.577
281.95	2.615
282.31	2.965
282.68	3.053
283.04	2.993
283.40	3.085
283.76	2.966
284.12	2.955
284.48	3.043
284.85	2.890
285.21	2.638
285.57	2.587
285.93	2.640
286.29	2.308
286.65	2.308
287.02	2.337
287.38	2.476
287.74	2.631
288.10	2.603
288.46	2.595
288.82	2.544
289.18	2.689
289.54	2.608
289.91	2.666
290.27	3.090
290.63	3.072
290.99	3.035
291.35	2.910
291.71	3.200
292.07	3.305
292.43	3.392
292.79	3.964
293.16	4.185
293.52	4.227
293.88	4.209
294.24	4.185
294.60	4.181
294.96	4.307
295.32	4.366
295.68	4.197
296.04	4.267
296.40	4.164
296.76	3.923
297.12	3.805
297.49	3.992
297.85	4.157
298.21	4.143
298.57	4.361
298.93	4.458
299.29	4.624
299.65	4.727
300.01	4.791
300.37	4.921
300.73	5.238
301.09	5.473
301.45	5.552
301.81	5.710
302.17	5.879
302.53	5.831
302.89	6.015
303.25	5.990
303.61	6.286
303.97	6.474
304.33	6.605
304.69	6.587
305.05	6.706
305.41	6.804
305.77	6.900
306.13	6.964
306.49	7.170
306.85	7.201
307.21	7.399
307.57	7.449
307.93	7.567
308.29	7.774
308.65	7.804
309.01	7.871
309.37	8.032
309.73	8.073
310.09	8.197
310.45	8.213
310.81	8.298
311.17	8.243
311.53	8.283
311.89	8.353
312.25	8.292
312.61	8.432
312.96	8.471
313.32	8.461
313.68	8.464
314.04	8.571
314.40	8.695
314.76	8.849
315.12	9.139
315.48	9.239
315.84	9.242
316.20	9.369
316.56	9.395
316.92	9.340
317.27	9.229
317.63	9.262
317.99	9.111
318.35	8.897
318.71	8.786
319.07	8.649
319.43	8.681
319.79	8.652
320.15	8.653
320.50	8.500
320.86	8.577
321.22	8.731
321.58	8.695
321.94	8.614
322.30	8.707
322.66	8.727
323.01	8.827
323.37	8.716
323.73	8.699
324.09	8.684
324.45	8.734
324.81	8.627
325.17	8.623
325.52	8.521
325.88	8.626
326.24	8.588
326.60	8.599
326.96	8.508
327.31	8.454
327.67	8.411
328.03	8.339
328.39	8.209
328.75	8.303
329.11	8.217
329.46	8.199
329.82	8.187
330.18	8.267
330.54	8.269
330.90	8.189
331.25	8.187
331.61	8.164
331.97	8.034
332.33	8.091
332.68	7.933
333.04	7.924
333.40	8.021
333.76	7.985
334.11	7.780
334.47	7.680
334.83	7.665
335.19	7.692
335.54	7.660
335.90	7.791
336.26	7.709
336.62	7.744
336.97	7.663
337.33	7.547
337.69	7.488
338.05	7.521
338.40	7.425
338.76	7.427
339.12	7.280
339.48	7.290
339.83	7.168
340.19	7.173
340.55	7.058
340.90	7.048
341.26	7.013
341.62	6.988
341.97	7.056
342.33	7.127
342.69	7.100
343.04	7.135
343.40	7.041
343.76	7.030
344.12	7.113
344.47	7.203
344.83	7.105
345.19	7.048
345.54	7.052
345.90	7.041
346.26	6.949
346.61	6.959
346.97	6.941
347.32	6.962
347.68	6.891
348.04	6.734
348.39	6.684
348.75	6.801
349.11	6.762
349.46	6.735
349.82	6.663
350.18	6.761
350.53	6.620
350.89	6.589
351.24	6.487
351.60	6.518
351.96	6.567
352.31	6.591
352.67	6.449
353.02	6.467
353.38	6.396
353.74	6.347
354.09	6.200
354.45	6.269
354.80	6.240
355.16	6.259
355.52	6.204
355.87	6.143
356.23	6.076
356.58	6.144
356.94	6.117
357.29	6.085
357.65	6.063
358.00	5.991
358.36	5.901
358.72	5.948
359.07	5.993
359.43	6.040
359.78	6.074
360.14	6.003
360.49	5.917
360.85	5.891
361.20	5.941
361.56	5.916
361.91	5.975
362.27	5.985
362.62	5.852
362.98	5.725
363.33	5.689
363.69	5.630
364.04	5.623
364.40	5.645
364.75	5.650
365.11	5.620
365.46	5.608
365.82	5.524
366.17	5.532
366.53	5.598
366.88	5.622
367.24	5.616
367.59	5.651
367.95	5.691
368.30	5.648
368.66	5.630
369.01	5.616
369.37	5.600
369.72	5.623
370.08	5.631
370.43	5.584
370.78	5.583
371.14	5.513
371.49	5.481
371.85	5.489
372.20	5.496
372.56	5.491
372.91	5.392
373.26	5.369
373.62	5.349
373.97	5.293
374.33	5.238
374.68	5.176
375.03	5.252
375.39	5.169
375.74	5.133
376.10	5.100
376.45	5.036
376.80	5.089
377.16	5.133
377.51	5.127
377.87	5.094
378.22	5.108
378.57	5.157
378.93	5.093
379.28	5.103
379.63	5.045
379.99	5.026
380.34	5.050
380.70	5.031
381.05	4.992
381.40	4.962
381.76	4.937
382.11	4.953
382.46	4.863
382.82	4.845
383.17	4.845
383.52	4.850
383.88	4.793
384.23	4.813
384.58	4.744
384.94	4.704
385.29	4.688
385.64	4.665
385.99	4.604
386.35	4.656
386.70	4.627
387.05	4.590
387.41	4.575
387.76	4.587
388.11	4.504
388.47	4.519
388.82	4.477
389.17	4.436
389.52	4.446
389.88	4.437
390.23	4.408
390.58	4.394
390.93	4.375
391.29	4.352
391.64	4.363
391.99	4.343
392.34	4.341
392.70	4.355
393.05	4.348
393.40	4.315
393.75	4.296
394.11	4.249
394.46	4.213
394.81	4.160
395.16	4.079
395.52	4.037
395.87	3.977
396.22	3.909
396.57	3.830
396.92	3.784
397.28	3.763
397.63	3.728
397.98	3.729
398.33	3.708
398.68	3.725
399.04	3.734
399.39	3.706
399.74	3.749
400.09	3.732
400.44	3.731
400.80	3.730
401.15	3.699
401.50	3.681
401.85	3.629
402.20	3.599
402.55	3.598
402.90	3.592
403.26	3.593
403.61	3.583
403.96	3.554
404.31	3.533
404.66	3.525
405.01	3.517
405.36	3.520
405.72	3.516
406.07	3.531
406.42	3.487
406.77	3.438
407.12	3.391
407.47	3.356
407.82	3.357
408.17	3.330
408.53	3.318
408.88	3.306
409.23	3.274
409.58	3.241
409.93	3.205
410.28	3.208
410.63	3.211
410.98	3.229
411.33	3.194
411.68	3.181
412.03	3.214
412.38	3.206
412.73	3.186
413.09	3.182
413.44	3.197
413.79	3.202
414.14	3.183
414.49	3.191
414.84	3.159
415.19	3.192
415.54	3.205
415.89	3.184
416.24	3.206
416.59	3.208
416.94	3.210
417.29	3.213
417.64	3.206
417.99	3.215
418.34	3.214
418.69	3.231
419.04	3.231
419.39	3.243
419.74	3.258
420.09	3.237
420.44	3.237
420.79	3.243
421.14	3.230
421.49	3.221
421.84	3.212
422.19	3.213
422.54	3.218
422.89	3.217
423.24	3.197
423.59	3.192
423.94	3.187
424.29	3.177
424.64	3.148
424.99	3.160
425.34	3.175
425.68	3.174
426.03	3.166
426.38	3.115
426.73	3.077
427.08	3.063
427.43	3.053
427.78	3.056
428.13	3.067
428.48	3.088
428.83	3.083
429.18	3.062
429.53	3.060
429.87	3.055
430.22	3.066
430.57	3.075
430.92	3.076
431.27	3.090
431.62	3.083
431.97	3.074
432.32	3.066
432.67	3.056
433.01	3.058
433.36	3.066
433.71	3.074
434.06	3.086
434.41	3.101
434.76	3.110
435.11	3.086
435.45	3.107
435.80	3.114
436.15	3.122
436.50	3.135
436.85	3.138
437.20	3.143
437.54	3.158
437.89	3.149
438.24	3.145
438.59	3.144
438.94	3.160
439.29	3.166
439.63	3.178
439.98	3.195
440.33	3.208
440.68	3.211
441.03	3.202
441.37	3.202
441.72	3.231
442.07	3.259
442.42	3.285
442.76	3.297
443.11	3.298
443.46	3.314
443.81	3.314
444.16	3.318
444.50	3.336
444.85	3.367
445.20	3.379
445.55	3.372
445.89	3.359
446.24	3.337
446.59	3.340
446.94	3.331
447.28	3.321
447.63	3.315
447.98	3.319
448.32	3.324
448.67	3.312
449.02	3.314
449.37	3.329
449.71	3.335
450.06	3.359
450.41	3.375
450.75	3.388
451.10	3.383
451.45	3.402
451.79	3.399
452.14	3.394
452.49	3.407
452.84	3.397
453.18	3.386
453.53	3.393
453.88	3.402
454.22	3.392
454.57	3.407
454.92	3.435
455.26	3.449
455.61	3.480
455.95	3.514
456.30	3.526
456.65	3.543
456.99	3.565
457.34	3.581
457.69	3.599
458.03	3.609
458.38	3.626
458.73	3.628
459.07	3.635
459.42	3.632
459.76	3.623
460.11	3.611
460.46	3.604
460.80	3.622
461.15	3.623
461.49	3.605
461.84	3.602
462.19	3.591
462.53	3.607
462.88	3.588
463.22	3.593
463.57	3.615
463.91	3.660
464.26	3.684
464.61	3.692
464.95	3.700
465.30	3.720
465.64	3.741
465.99	3.749
466.33	3.752
466.68	3.783
467.02	3.792
467.37	3.787
467.71	3.775
468.06	3.787
468.41	3.767
468.75	3.761
469.10	3.750
469.44	3.744
469.79	3.735
470.13	3.739
470.48	3.720
470.82	3.698
471.17	3.694
471.51	3.669
471.86	3.649
472.20	3.656
472.55	3.672
472.89	3.676
473.23	3.667
473.58	3.667
473.92	3.661
474.27	3.659
474.61	3.668
474.96	3.651
475.30	3.640
475.65	3.634
475.99	3.619
476.34	3.604
476.68	3.598
477.02	3.596
477.37	3.600
477.71	3.599
478.06	3.603
478.40	3.632
478.75	3.688
479.09	3.757
479.43	3.821
479.78	3.895
480.12	3.963
480.47	4.035
480.81	4.123
481.15	4.200
481.50	4.279
481.84	4.376
482.19	4.465
482.53	4.536
482.87	4.562
483.22	4.553
483.56	4.502
483.90	4.423
484.25	4.335
484.59	4.240
484.94	4.165
485.28	4.095
485.62	4.004
485.97	3.906
486.31	3.813
486.65	3.759
487.00	3.744
487.34	3.768
487.68	3.799
488.03	3.836
488.37	3.863
488.71	3.865
489.06	3.851
489.40	3.839
489.74	3.818
490.09	3.806
490.43	3.791
490.77	3.768
491.11	3.740
491.46	3.728
491.80	3.714
492.14	3.692
492.49	3.676
492.83	3.658
493.17	3.628
493.51	3.616
493.86	3.610
494.20	3.608
494.54	3.608
494.88	3.608
495.23	3.615
495.57	3.623
495.91	3.648
496.25	3.657
496.60	3.673
496.94	3.696
497.28	3.708
497.62	3.712
497.97	3.723
498.31	3.743
498.65	3.749
498.99	3.757
499.33	3.774
499.68	3.782
500.02	3.792
500.36	3.788
500.70	3.799
501.04	3.823
501.39	3.841
501.73	3.861
502.07	3.870
502.41	3.891
502.75	3.917
503.09	3.942
503.44	3.963
503.78	3.988
504.12	4.024
504.46	4.054
504.80	4.075
505.14	4.091
505.49	4.107
505.83	4.139
506.17	4.166
506.51	4.188
506.85	4.196
507.19	4.212
507.53	4.233
507.87	4.261
508.22	4.277
508.56	4.290
508.90	4.316
509.24	4.337
509.58	4.341
509.92	4.361
510.26	4.373
510.60	4.398
510.94	4.417
511.28	4.436
511.63	4.453
511.97	4.470
512.31	4.489
512.65	4.506
512.99	4.519
513.33	4.542
513.67	4.558
514.01	4.588
514.35	4.610
514.69	4.650
515.03	4.679
515.37	4.692
515.71	4.708
516.05	4.727
516.39	4.731
516.73	4.753
517.07	4.765
517.41	4.786
517.75	4.772
518.09	4.770
518.43	4.753
518.77	4.743
519.11	4.748
519.45	4.738
519.79	4.724
520.13	4.722
520.47	4.697
520.81	4.690
521.15	4.662
521.49	4.683
521.83	4.676
522.17	4.679
522.51	4.678
522.85	4.687
523.19	4.716
523.53	4.758
523.87	4.805
524.21	4.853
524.55	4.901
524.89	4.950
525.23	4.989
525.57	5.021
525.91	5.043
526.25	5.070
526.58	5.087
526.92	5.099
527.26	5.098
527.60	5.081
527.94	5.068
528.28	5.035
528.62	5.002
528.96	4.962
529.30	4.929
529.64	4.901
529.97	4.862
530.31	4.823
530.65	4.779
530.99	4.744
531.33	4.719
531.67	4.696
532.01	4.678
532.35	4.656
532.68	4.632
533.02	4.604
533.36	4.566
533.70	4.533
534.04	4.498
534.38	4.468
534.71	4.434
535.05	4.407
535.39	4.367
535.73	4.353
536.07	4.327
536.41	4.318
536.74	4.320
537.08	4.333
537.42	4.329
537.76	4.339
538.10	4.349
538.43	4.367
538.77	4.375
539.11	4.382
539.45	4.379
539.79	4.392
540.12	4.387
540.46	4.378
540.80	4.352
541.14	4.339
541.47	4.324
541.81	4.296
542.15	4.268
542.49	4.232
542.82	4.197
543.16	4.164
543.50	4.116
543.84	4.086
544.17	4.050
544.51	4.038
544.85	4.025
545.18	3.987
545.52	3.970
545.86	3.934
546.20	3.909
546.53	3.888
546.87	3.851
547.21	3.825
547.54	3.794
547.88	3.784
548.22	3.749
548.55	3.725
548.89	3.731
549.23	3.716
549.56	3.701
549.90	3.705
550.24	3.696
550.57	3.714
550.91	3.707
551.25	3.695
551.58	3.678
551.92	3.689
552.26	3.682
552.59	3.653
552.93	3.649
553.27	3.654
553.60	3.621
553.94	3.630
554.27	3.607
554.61	3.624
554.95	3.640
555.28	3.634
555.62	3.635
555.95	3.637
556.29	3.635
556.63	3.634
556.96	3.638
557.30	3.663
557.63	3.660
557.97	3.661
558.31	3.666
558.64	3.661
558.98	3.685
559.31	3.681
559.65	3.662
559.98	3.659
560.32	3.652
560.65	3.659
560.99	3.664
561.33	3.669
561.66	3.690
562.00	3.690
562.33	3.706
562.67	3.697
563.00	3.710
563.34	3.742
563.67	3.763
564.01	3.783
564.34	3.790
564.68	3.802
565.01	3.811
565.35	3.805
565.68	3.813
566.02	3.814
566.35	3.836
566.69	3.853
567.02	3.864
567.36	3.879
567.69	3.894
568.03	3.906
568.36	3.914
568.69	3.917
569.03	3.932
569.36	3.931
569.70	3.921
570.03	3.940
570.37	3.938
570.70	3.955
571.04	3.960
571.37	3.962
571.70	3.967
572.04	3.962
572.37	3.969
572.71	3.986
573.04	3.999
573.37	4.027
573.71	4.014
574.04	4.027
574.38	4.009
574.71	3.999
575.04	3.997
575.38	3.986
575.71	4.004
576.05	4.018
576.38	4.006
576.71	3.999
577.05	3.993
577.38	4.017
577.71	4.013
578.05	4.025
578.38	4.043
578.71	4.037
579.05	4.064
579.38	4.078
579.71	4.069
580.05	4.052
580.38	4.076
580.71	4.084
581.05	4.065
581.38	4.070
581.71	4.084
582.05	4.098
582.38	4.147
582.71	4.162
583.04	4.140
583.38	4.173
583.71	4.221
584.04	4.237
584.38	4.272
584.71	4.306
585.04	4.346
585.37	4.403
585.71	4.435
586.04	4.454
586.37	4.474
586.70	4.544
587.04	4.555
587.37	4.594
587.70	4.628
588.03	4.658
588.37	4.700
588.70	4.714
589.03	4.737
589.36	4.780
589.69	4.793
590.03	4.833
590.36	4.840
590.69	4.913
591.02	4.938
591.35	4.988
591.69	5.035
592.02	5.074
592.35	5.119
592.68	5.158
593.01	5.199
593.35	5.281
593.68	5.321
594.01	5.382
594.34	5.419
594.67	5.458
595.00	5.514
595.34	5.537
595.67	5.590
596.00	5.648
596.33	5.689
596.66	5.721
596.99	5.744
597.32	5.778
597.65	5.838
597.99	5.898
598.32	5.955
598.65	5.988
598.98	6.067
599.31	6.112
599.64	6.171
599.97	6.234
600.30	6.286
600.63	6.351
600.96	6.409
601.30	6.471
601.63	6.488
601.96	6.543
602.29	6.589
602.62	6.630
602.95	6.691
603.28	6.715
603.61	6.750
603.94	6.786
604.27	6.845
604.60	6.893
604.93	6.920
605.26	6.977
605.59	7.018
605.92	7.067
606.25	7.106
606.58	7.128
606.91	7.173
607.24	7.219
607.57	7.278
607.90	7.292
608.23	7.309
608.56	7.336
608.89	7.370
609.22	7.375
609.55	7.378
609.88	7.389
610.21	7.408
610.54	7.422
610.87	7.411
611.20	7.439
611.53	7.465
611.86	7.499
612.19	7.511
612.52	7.521
612.85	7.564
613.18	7.584
613.51	7.573
613.84	7.584
614.17	7.617
614.49	7.643
614.82	7.664
615.15	7.665
615.48	7.668
615.81	7.675
616.14	7.684
616.47	7.694
616.80	7.726
617.13	7.769
617.46	7.786
617.78	7.795
618.11	7.800
618.44	7.778
618.77	7.768
619.10	7.782
619.43	7.817
619.76	7.804
620.09	7.815
620.41	7.805
620.74	7.844
621.07	7.849
621.40	7.840
621.73	7.894
622.06	7.919
622.38	7.962
622.71	7.957
623.04	7.936
623.37	7.983
623.70	7.972
624.02	8.004
624.35	8.017
624.68	8.039
625.01	8.075
625.34	8.048
625.66	8.044
625.99	8.022
626.32	8.061
626.65	8.092
626.98	8.075
627.30	8.082
627.63	8.106
627.96	8.076
628.29	8.075
628.61	8.049
628.94	8.072
629.27	8.083
629.60	8.140
629.92	8.129
630.25	8.143
630.58	8.145
630.91	8.163
631.23	8.137
631.56	8.151
631.89	8.182
632.21	8.216
632.54	8.192
632.87	8.220
633.19	8.178
633.52	8.203
633.85	8.181
634.18	8.176
634.50	8.194
634.83	8.195
635.16	8.220
635.48	8.202
635.81	8.190
636.14	8.230
636.46	8.198
636.79	8.216
637.11	8.208
637.44	8.214
637.77	8.249
638.09	8.233
638.42	8.186
638.75	8.152
639.07	8.153
639.40	8.113
639.73	8.098
640.05	8.126
640.38	8.120
640.70	8.098
641.03	8.077
641.36	8.058
641.68	8.066
642.01	8.124
642.33	8.137
642.66	8.138
642.98	8.146
643.31	8.142
643.64	8.111
643.96	8.091
644.29	8.097
644.61	8.124
644.94	8.124
645.26	8.092
645.59	8.086
645.91	8.083
646.24	8.054
646.56	8.105
646.89	8.079
647.22	8.134
647.54	8.151
647.87	8.164
648.19	8.185
648.52	8.233
648.84	8.290
649.17	8.256
649.49	8.237
649.82	8.262
650.14	8.248
650.47	8.271
650.79	8.208
651.11	8.214
651.44	8.223
651.76	8.184
652.09	8.136
652.41	8.120
652.74	8.147
653.06	8.163
653.39	8.178
653.71	8.171
654.04	8.174
654.36	8.178
654.68	8.132
655.01	8.117
655.33	8.157
655.66	8.157
655.98	8.132
656.30	8.160
656.63	8.141
656.95	8.111
657.28	8.112
657.60	8.093
657.92	8.068
658.25	8.094
658.57	8.091
658.90	8.055
659.22	8.035
659.54	8.055
659.87	7.995
