OOIBase32 Version 2.0.0.6 Data File
++++++++++++++++++++++++++++++++++++
Date: 01-23-2012, 21:58:27
User: Valued Ocean Optics Customer
Spectrometer Serial Number: USB2E2917
Spectrometer Channel: Master
Integration Time (msec): 5
Spectra Averaged: 10
Boxcar Smoothing: 5
Correct for Electrical Dark: Enabled
Time Normalized: Disabled
Dual-beam Reference: Disabled
Reference Channel: Master
Temperature: Not acquired
Spectrometer Type: S2000
ADC Type: USB2000
Number of Pixels in File: 2048
Graph Title: 
>>>>>Begin Spectral Data<<<<<
180.30	0.000
180.67	0.000
181.03	121.210
181.40	-214.189
181.77	13678.667
182.14	211.295
182.51	168.535
182.88	2764.407
183.25	-22.661
183.62	-73.894
183.99	55.195
184.36	0.372
184.73	73.841
185.10	-56.256
185.46	50.738
185.83	183.961
186.20	39.924
186.57	92.439
186.94	-29.867
187.31	196.983
187.68	-74.791
188.05	-29.225
188.42	-1.893
188.78	4.615
189.15	9.127
189.52	9.416
189.89	3.691
190.26	-17.235
190.63	4.022
191.00	19.439
191.37	25.125
191.73	30.553
192.10	23.822
192.47	10.137
192.84	10.856
193.21	0.007
193.58	11.255
193.94	16.595
194.31	11.625
194.68	14.160
195.05	5.904
195.42	-9.084
195.79	-4.280
196.15	14.546
196.52	23.154
196.89	22.741
197.26	31.154
197.63	24.518
198.00	24.618
198.36	31.071
198.73	16.720
199.10	9.724
199.47	16.184
199.84	14.783
200.20	22.614
200.57	10.583
200.94	-13.180
201.31	-32.823
201.68	-19.147
202.04	-24.833
202.41	-17.295
202.78	-13.883
203.15	-7.815
203.51	-38.260
203.88	-38.989
204.25	-69.500
204.62	-40.976
204.98	-28.755
205.35	-13.867
205.72	-26.511
206.09	-27.764
206.46	-34.107
206.82	-36.223
207.19	-45.239
207.56	-19.541
207.92	-32.115
208.29	-29.077
208.66	-33.575
209.03	-25.471
209.39	-26.238
209.76	-19.917
210.13	-8.881
210.50	-18.554
210.86	-10.707
211.23	7.883
211.60	7.919
211.96	21.327
212.33	23.948
212.70	29.209
213.07	23.207
213.43	22.428
213.80	21.208
214.17	6.231
214.53	11.546
214.90	7.764
215.27	-3.664
215.63	-12.391
216.00	-23.855
216.37	-11.156
216.74	-21.387
217.10	-16.669
217.47	-22.938
217.84	-16.866
218.20	8.638
218.57	15.682
218.94	17.182
219.30	22.866
219.67	23.541
220.04	21.584
220.40	8.956
220.77	5.904
221.13	-1.501
221.50	-10.562
221.87	-15.710
222.23	-23.890
222.60	-22.670
222.97	-24.241
223.33	-29.469
223.70	-23.733
224.07	-15.142
224.43	-10.388
224.80	-6.205
225.16	-2.084
225.53	1.230
225.90	-1.237
226.26	-2.226
226.63	-3.909
226.99	-2.254
227.36	1.477
227.73	0.888
228.09	-1.673
228.46	-2.109
228.82	-1.868
229.19	-2.715
229.56	-4.517
229.92	-3.264
230.29	-1.621
230.65	0.523
231.02	0.773
231.38	-1.279
231.75	-0.498
232.12	2.243
232.48	3.007
232.85	3.038
233.21	3.606
233.58	5.292
233.94	7.140
234.31	5.368
234.68	3.978
235.04	3.078
235.41	3.881
235.77	3.291
236.14	2.008
236.50	0.260
236.87	0.509
237.23	0.222
237.60	1.045
237.96	0.126
238.33	1.630
238.69	1.012
239.06	0.903
239.42	0.561
239.79	0.817
240.15	1.729
240.52	2.208
240.88	2.559
241.25	2.785
241.61	2.422
241.98	2.915
242.34	2.415
242.71	2.896
243.07	3.351
243.44	3.644
243.80	3.800
244.17	3.731
244.53	4.051
244.90	3.963
245.26	4.047
245.63	3.961
245.99	4.117
246.36	4.344
246.72	3.886
247.09	3.886
247.45	3.767
247.81	3.610
248.18	3.172
248.54	3.017
248.91	3.064
249.27	3.162
249.64	3.285
250.00	3.211
250.36	3.251
250.73	4.149
251.09	4.176
251.46	4.144
251.82	4.486
252.19	5.090
252.55	4.501
252.91	3.895
253.28	3.271
253.64	3.674
254.01	3.405
254.37	3.085
254.73	3.404
255.10	3.433
255.46	3.212
255.83	2.627
256.19	2.626
256.55	2.795
256.92	2.860
257.28	3.051
257.65	2.997
258.01	3.266
258.37	3.274
258.74	3.179
259.10	3.130
259.46	3.335
259.83	3.591
260.19	3.499
260.55	3.702
260.92	3.836
261.28	3.630
261.64	3.284
262.01	3.018
262.37	2.801
262.73	2.335
263.10	2.107
263.46	2.288
263.82	2.296
264.19	2.127
264.55	2.120
264.91	2.057
265.28	2.837
265.64	3.145
266.00	2.905
266.37	3.153
266.73	3.730
267.09	3.779
267.46	3.740
267.82	3.489
268.18	3.536
268.54	3.417
268.91	3.521
269.27	3.202
269.63	3.191
270.00	3.266
270.36	3.285
270.72	2.903
271.08	2.546
271.45	2.407
271.81	2.804
272.17	2.897
272.53	2.711
272.90	2.561
273.26	2.371
273.62	2.279
273.98	2.217
274.35	1.947
274.71	2.085
275.07	2.354
275.43	2.454
275.80	2.269
276.16	2.604
276.52	2.721
276.88	2.903
277.25	2.973
277.61	3.125
277.97	3.192
278.33	3.170
278.69	3.063
279.06	3.419
279.42	3.081
279.78	3.041
280.14	2.886
280.50	3.039
280.87	3.155
281.23	3.374
281.59	3.241
281.95	3.193
282.31	3.318
282.68	3.542
283.04	3.377
283.40	3.551
283.76	3.650
284.12	3.698
284.48	3.648
284.85	3.461
285.21	3.196
285.57	3.160
285.93	3.226
286.29	3.310
286.65	3.303
287.02	3.388
287.38	3.417
287.74	3.299
288.10	3.150
288.46	3.201
288.82	3.092
289.18	3.091
289.54	3.138
289.91	3.348
290.27	3.328
290.63	3.218
290.99	2.990
291.35	3.047
291.71	3.135
292.07	3.288
292.43	3.139
292.79	3.575
293.16	3.791
293.52	3.943
293.88	3.830
294.24	3.840
294.60	3.673
294.96	3.664
295.32	3.566
295.68	3.415
296.04	3.412
296.40	3.420
296.76	3.226
297.12	3.162
297.49	3.196
297.85	3.266
298.21	3.211
298.57	3.353
298.93	3.571
299.29	3.689
299.65	3.863
300.01	3.919
300.37	3.952
300.73	4.157
301.09	4.161
301.45	4.092
301.81	3.945
302.17	4.022
302.53	4.072
302.89	4.037
303.25	3.854
303.61	3.842
303.97	3.655
304.33	3.530
304.69	3.313
305.05	3.312
305.41	3.290
305.77	3.374
306.13	3.258
306.49	3.273
306.85	3.097
307.21	3.264
307.57	3.270
307.93	3.482
308.29	3.577
308.65	3.577
309.01	3.632
309.37	3.739
309.73	3.763
310.09	3.871
310.45	3.867
310.81	4.014
311.17	3.899
311.53	3.916
311.89	3.859
312.25	3.897
312.61	4.006
312.96	4.065
313.32	4.078
313.68	3.986
314.04	3.973
314.40	3.940
314.76	3.926
315.12	4.030
315.48	4.077
315.84	4.036
316.20	4.180
316.56	4.157
316.92	4.037
317.27	3.897
317.63	3.891
317.99	3.837
318.35	3.756
318.71	3.658
319.07	3.646
319.43	3.700
319.79	3.639
320.15	3.487
320.50	3.376
320.86	3.633
321.22	3.844
321.58	4.021
321.94	4.138
322.30	4.374
322.66	4.555
323.01	4.585
323.37	4.617
323.73	4.775
324.09	4.937
324.45	5.124
324.81	4.982
325.17	4.945
325.52	4.996
325.88	4.994
326.24	5.053
326.60	5.264
326.96	5.486
327.31	5.569
327.67	5.661
328.03	5.743
328.39	5.834
328.75	6.071
329.11	6.118
329.46	6.033
329.82	6.079
330.18	6.131
330.54	6.003
330.90	6.029
331.25	5.951
331.61	5.873
331.97	5.837
332.33	5.879
332.68	5.767
333.04	5.758
333.40	5.862
333.76	5.892
334.11	5.814
334.47	5.884
334.83	5.821
335.19	5.959
335.54	6.132
335.90	6.227
336.26	6.131
336.62	6.211
336.97	6.184
337.33	6.224
337.69	6.225
338.05	6.252
338.40	6.304
338.76	6.367
339.12	6.319
339.48	6.290
339.83	6.278
340.19	6.281
340.55	6.163
340.90	6.178
341.26	6.071
341.62	6.124
341.97	6.254
342.33	6.233
342.69	6.198
343.04	6.160
343.40	6.063
343.76	6.046
344.12	6.182
344.47	6.290
344.83	6.298
345.19	6.438
345.54	6.463
345.90	6.459
346.26	6.362
346.61	6.426
346.97	6.490
347.32	6.540
347.68	6.485
348.04	6.450
348.39	6.406
348.75	6.516
349.11	6.456
349.46	6.455
349.82	6.405
350.18	6.527
350.53	6.434
350.89	6.460
351.24	6.474
351.60	6.541
351.96	6.555
352.31	6.640
352.67	6.587
353.02	6.616
353.38	6.600
353.74	6.593
354.09	6.553
354.45	6.699
354.80	6.596
355.16	6.609
355.52	6.578
355.87	6.551
356.23	6.529
356.58	6.618
356.94	6.673
357.29	6.678
357.65	6.639
358.00	6.673
358.36	6.645
358.72	6.775
359.07	6.878
359.43	6.932
359.78	6.956
360.14	6.988
360.49	6.974
360.85	6.929
361.20	6.996
361.56	7.096
361.91	7.097
362.27	7.097
362.62	7.077
362.98	6.977
363.33	7.035
363.69	7.048
364.04	7.079
364.40	7.118
364.75	7.187
365.11	7.199
365.46	7.194
365.82	7.221
366.17	7.225
366.53	7.290
366.88	7.329
367.24	7.390
367.59	7.455
367.95	7.489
368.30	7.496
368.66	7.523
369.01	7.586
369.37	7.660
369.72	7.662
370.08	7.744
370.43	7.701
370.78	7.764
371.14	7.798
371.49	7.870
371.85	7.898
372.20	7.916
372.56	7.967
372.91	7.958
373.26	8.011
373.62	8.093
373.97	8.151
374.33	8.266
374.68	8.292
375.03	8.326
375.39	8.322
375.74	8.396
376.10	8.442
376.45	8.485
376.80	8.590
377.16	8.602
377.51	8.695
377.87	8.691
378.22	8.747
378.57	8.865
378.93	8.918
379.28	9.061
379.63	9.138
379.99	9.301
380.34	9.367
380.70	9.441
381.05	9.544
381.40	9.612
381.76	9.774
382.11	9.909
382.46	9.971
382.82	10.064
383.17	10.125
383.52	10.249
383.88	10.289
384.23	10.408
384.58	10.471
384.94	10.546
385.29	10.670
385.64	10.752
385.99	10.829
386.35	10.961
386.70	11.087
387.05	11.149
387.41	11.207
387.76	11.295
388.11	11.351
388.47	11.478
388.82	11.548
389.17	11.578
389.52	11.645
389.88	11.710
390.23	11.788
390.58	11.816
390.93	11.907
391.29	11.970
391.64	12.083
391.99	12.166
392.34	12.233
392.70	12.346
393.05	12.461
393.40	12.550
393.75	12.636
394.11	12.700
394.46	12.789
394.81	12.864
395.16	12.923
395.52	13.004
395.87	13.093
396.22	13.130
396.57	13.193
396.92	13.278
397.28	13.351
397.63	13.385
397.98	13.471
398.33	13.540
398.68	13.609
399.04	13.663
399.39	13.702
399.74	13.741
400.09	13.781
400.44	13.829
400.80	13.844
401.15	13.849
401.50	13.943
401.85	13.993
402.20	14.049
402.55	14.129
402.90	14.189
403.26	14.229
403.61	14.285
403.96	14.375
404.31	14.445
404.66	14.547
405.01	14.665
405.36	14.713
405.72	14.744
406.07	14.792
406.42	14.816
406.77	14.849
407.12	14.929
407.47	15.010
407.82	15.061
408.17	15.071
408.53	15.061
408.88	15.064
409.23	15.100
409.58	15.159
409.93	15.197
410.28	15.233
410.63	15.324
410.98	15.337
411.33	15.323
411.68	15.355
412.03	15.425
412.38	15.470
412.73	15.476
413.09	15.501
413.44	15.496
413.79	15.508
414.14	15.499
414.49	15.457
414.84	15.458
415.19	15.495
415.54	15.495
415.89	15.482
416.24	15.470
416.59	15.492
416.94	15.477
417.29	15.481
417.64	15.499
417.99	15.520
418.34	15.546
418.69	15.566
419.04	15.570
419.39	15.585
419.74	15.595
420.09	15.631
420.44	15.654
420.79	15.686
421.14	15.690
421.49	15.699
421.84	15.719
422.19	15.760
422.54	15.792
422.89	15.812
423.24	15.839
423.59	15.884
423.94	15.900
424.29	15.928
424.64	15.972
424.99	16.078
425.34	16.180
425.68	16.256
426.03	16.322
426.38	16.378
426.73	16.463
427.08	16.539
427.43	16.584
427.78	16.654
428.13	16.703
428.48	16.727
428.83	16.732
429.18	16.709
429.53	16.739
429.87	16.734
430.22	16.717
430.57	16.749
430.92	16.738
431.27	16.775
431.62	16.772
431.97	16.772
432.32	16.795
432.67	16.792
433.01	16.807
433.36	16.839
433.71	16.897
434.06	16.935
434.41	16.970
434.76	17.015
435.11	17.016
435.45	17.041
435.80	17.048
436.15	17.048
436.50	17.063
436.85	17.093
437.20	17.074
437.54	17.072
437.89	17.068
438.24	17.045
438.59	17.070
438.94	17.087
439.29	17.109
439.63	17.136
439.98	17.164
440.33	17.204
440.68	17.218
441.03	17.240
441.37	17.253
441.72	17.292
442.07	17.320
442.42	17.313
442.76	17.345
443.11	17.352
443.46	17.355
443.81	17.360
444.16	17.356
444.50	17.381
444.85	17.405
445.20	17.430
445.55	17.449
445.89	17.467
446.24	17.499
446.59	17.517
446.94	17.538
447.28	17.597
447.63	17.663
447.98	17.718
448.32	17.752
448.67	17.789
449.02	17.829
449.37	17.883
449.71	17.918
450.06	17.941
450.41	17.965
450.75	17.992
451.10	18.025
451.45	18.045
451.79	18.040
452.14	18.057
452.49	18.077
452.84	18.094
453.18	18.094
453.53	18.125
453.88	18.153
454.22	18.178
454.57	18.202
454.92	18.195
455.26	18.195
455.61	18.225
455.95	18.230
456.30	18.262
456.65	18.270
456.99	18.297
457.34	18.318
457.69	18.348
458.03	18.357
458.38	18.392
458.73	18.427
459.07	18.470
459.42	18.507
459.76	18.549
460.11	18.579
460.46	18.643
460.80	18.726
461.15	18.792
461.49	18.847
461.84	18.943
462.19	19.021
462.53	19.112
462.88	19.159
463.22	19.223
463.57	19.304
463.91	19.382
464.26	19.456
464.61	19.487
464.95	19.540
465.30	19.582
465.64	19.625
465.99	19.652
466.33	19.681
466.68	19.736
467.02	19.772
467.37	19.786
467.71	19.807
468.06	19.828
468.41	19.857
468.75	19.868
469.10	19.895
469.44	19.916
469.79	19.945
470.13	19.982
470.48	19.982
470.82	20.025
471.17	20.075
471.51	20.100
471.86	20.107
472.20	20.141
472.55	20.195
472.89	20.208
473.23	20.222
473.58	20.265
473.92	20.281
474.27	20.320
474.61	20.335
474.96	20.330
475.30	20.348
475.65	20.364
475.99	20.378
476.34	20.376
476.68	20.422
477.02	20.433
477.37	20.454
477.71	20.484
478.06	20.544
478.40	20.623
478.75	20.769
479.09	20.942
479.43	21.133
479.78	21.350
480.12	21.604
480.47	21.875
480.81	22.176
481.15	22.502
481.50	22.826
481.84	23.224
482.19	23.650
482.53	23.991
482.87	24.148
483.22	24.105
483.56	23.880
483.90	23.532
484.25	23.109
484.59	22.708
484.94	22.384
485.28	22.100
485.62	21.703
485.97	21.267
486.31	20.888
486.65	20.684
487.00	20.686
487.34	20.854
487.68	21.103
488.03	21.416
488.37	21.693
488.71	21.810
489.06	21.861
489.40	21.902
489.74	21.933
490.09	21.977
490.43	21.996
490.77	22.028
491.11	22.053
491.46	22.110
491.80	22.155
492.14	22.172
492.49	22.193
492.83	22.201
493.17	22.242
493.51	22.299
493.86	22.350
494.20	22.416
494.54	22.466
494.88	22.513
495.23	22.556
495.57	22.606
495.91	22.664
496.25	22.721
496.60	22.793
496.94	22.864
497.28	22.937
497.62	23.005
497.97	23.077
498.31	23.154
498.65	23.255
498.99	23.369
499.33	23.441
499.68	23.529
500.02	23.647
500.36	23.697
500.70	23.777
501.04	23.847
501.39	23.920
501.73	24.015
502.07	24.099
502.41	24.168
502.75	24.222
503.09	24.298
503.44	24.377
503.78	24.416
504.12	24.506
504.46	24.583
504.80	24.640
505.14	24.711
505.49	24.764
505.83	24.837
506.17	24.887
506.51	24.931
506.85	24.987
507.19	25.042
507.53	25.125
507.87	25.201
508.22	25.271
508.56	25.360
508.90	25.448
509.24	25.521
509.58	25.604
509.92	25.695
510.26	25.785
510.60	25.911
510.94	25.980
511.28	26.058
511.63	26.163
511.97	26.224
512.31	26.291
512.65	26.337
512.99	26.425
513.33	26.487
513.67	26.569
514.01	26.655
514.35	26.707
514.69	26.796
515.03	26.854
515.37	26.890
515.71	26.946
516.05	27.009
516.39	27.066
516.73	27.102
517.07	27.145
517.41	27.192
517.75	27.240
518.09	27.276
518.43	27.316
518.77	27.375
519.11	27.443
519.45	27.530
519.79	27.585
520.13	27.682
520.47	27.770
520.81	27.858
521.15	27.900
521.49	27.967
521.83	28.037
522.17	28.093
522.51	28.165
522.85	28.240
523.19	28.351
523.53	28.519
523.87	28.663
524.21	28.832
524.55	28.984
524.89	29.142
525.23	29.287
525.57	29.421
525.91	29.567
526.25	29.694
526.58	29.789
526.92	29.868
527.26	29.893
527.60	29.911
527.94	29.901
528.28	29.874
528.62	29.842
528.96	29.798
529.30	29.766
529.64	29.728
529.97	29.668
530.31	29.624
530.65	29.579
530.99	29.572
531.33	29.565
531.67	29.595
532.01	29.630
532.35	29.679
532.68	29.695
533.02	29.704
533.36	29.698
533.70	29.716
534.04	29.748
534.38	29.770
534.71	29.803
535.05	29.863
535.39	29.895
535.73	29.952
536.07	30.011
536.41	30.101
536.74	30.203
537.08	30.289
537.42	30.401
537.76	30.483
538.10	30.560
538.43	30.642
538.77	30.700
539.11	30.754
539.45	30.826
539.79	30.866
540.12	30.896
540.46	30.896
540.80	30.890
541.14	30.869
541.47	30.869
541.81	30.881
542.15	30.876
542.49	30.868
542.82	30.870
543.16	30.855
543.50	30.854
543.84	30.881
544.17	30.929
544.51	31.004
544.85	31.061
545.18	31.098
545.52	31.118
545.86	31.165
546.20	31.220
546.53	31.278
546.87	31.315
547.21	31.389
547.54	31.447
547.88	31.514
548.22	31.562
548.55	31.627
548.89	31.728
549.23	31.815
549.56	31.848
549.90	31.922
550.24	31.985
550.57	32.065
550.91	32.103
551.25	32.167
551.58	32.203
551.92	32.269
552.26	32.306
552.59	32.361
552.93	32.409
553.27	32.518
553.60	32.525
553.94	32.582
554.27	32.626
554.61	32.692
554.95	32.743
555.28	32.799
555.62	32.841
555.95	32.931
556.29	32.956
556.63	33.024
556.96	32.998
557.30	33.095
557.63	33.146
557.97	33.197
558.31	33.247
558.64	33.322
558.98	33.344
559.31	33.396
559.65	33.404
559.98	33.429
560.32	33.432
560.65	33.473
560.99	33.478
561.33	33.544
561.66	33.548
562.00	33.589
562.33	33.578
562.67	33.657
563.00	33.655
563.34	33.695
563.67	33.713
564.01	33.768
564.34	33.817
564.68	33.853
565.01	33.823
565.35	33.882
565.68	33.877
566.02	33.912
566.35	33.959
566.69	34.015
567.02	34.040
567.36	34.131
567.69	34.172
568.03	34.183
568.36	34.208
568.69	34.255
569.03	34.267
569.36	34.312
569.70	34.349
570.03	34.316
570.37	34.304
570.70	34.333
571.04	34.345
571.37	34.362
571.70	34.424
572.04	34.472
572.37	34.503
572.71	34.543
573.04	34.602
573.37	34.681
573.71	34.777
574.04	34.895
574.38	34.991
574.71	35.049
575.04	35.139
575.38	35.223
575.71	35.308
576.05	35.422
576.38	35.519
576.71	35.612
577.05	35.658
577.38	35.749
577.71	35.833
578.05	35.896
578.38	35.942
578.71	36.008
579.05	36.063
579.38	36.131
579.71	36.209
580.05	36.266
580.38	36.328
580.71	36.381
581.05	36.432
581.38	36.435
581.71	36.480
582.05	36.529
582.38	36.562
582.71	36.614
583.04	36.668
583.38	36.686
583.71	36.706
584.04	36.729
584.38	36.782
584.71	36.813
585.04	36.875
585.37	36.912
585.71	37.005
586.04	37.028
586.37	37.050
586.70	37.065
587.04	37.066
587.37	37.143
587.70	37.155
588.03	37.217
588.37	37.240
588.70	37.279
589.03	37.301
589.36	37.322
589.69	37.379
590.03	37.413
590.36	37.481
590.69	37.583
591.02	37.583
591.35	37.639
591.69	37.614
592.02	37.613
592.35	37.619
592.68	37.688
593.01	37.684
593.35	37.738
593.68	37.755
594.01	37.747
594.34	37.744
594.67	37.775
595.00	37.779
595.34	37.791
595.67	37.825
596.00	37.869
596.33	37.867
596.66	37.897
596.99	37.946
597.32	38.035
597.65	38.118
597.99	38.183
598.32	38.222
598.65	38.345
598.98	38.441
599.31	38.527
599.64	38.611
599.97	38.672
600.30	38.710
600.63	38.728
600.96	38.696
601.30	38.673
601.63	38.660
601.96	38.700
602.29	38.649
602.62	38.701
602.95	38.722
603.28	38.730
603.61	38.772
603.94	38.841
604.27	38.850
604.60	38.930
604.93	39.038
605.26	39.133
605.59	39.208
605.92	39.324
606.25	39.375
606.58	39.457
606.91	39.524
607.24	39.543
607.57	39.559
607.90	39.615
608.23	39.640
608.56	39.660
608.89	39.675
609.22	39.726
609.55	39.785
609.88	39.824
610.21	39.925
610.54	40.036
610.87	40.184
611.20	40.375
611.53	40.537
611.86	40.703
612.19	40.870
612.52	40.989
612.85	41.104
613.18	41.197
613.51	41.277
613.84	41.286
614.17	41.372
614.49	41.373
614.82	41.399
615.15	41.412
615.48	41.455
615.81	41.446
616.14	41.507
616.47	41.564
616.80	41.614
617.13	41.698
617.46	41.757
617.78	41.780
618.11	41.891
618.44	41.951
618.77	41.971
619.10	42.057
619.43	42.124
619.76	42.211
620.09	42.304
620.41	42.373
620.74	42.437
621.07	42.526
621.40	42.584
621.73	42.576
622.06	42.574
622.38	42.620
622.71	42.525
623.04	42.491
623.37	42.453
623.70	42.391
624.02	42.387
624.35	42.399
624.68	42.390
625.01	42.404
625.34	42.443
625.66	42.491
625.99	42.534
626.32	42.620
626.65	42.760
626.98	42.794
627.30	42.936
627.63	43.024
627.96	43.101
628.29	43.195
628.61	43.291
628.94	43.380
629.27	43.490
629.60	43.617
629.92	43.678
630.25	43.702
630.58	43.836
630.91	43.817
631.23	43.843
631.56	43.879
631.89	43.982
632.21	43.984
632.54	43.980
632.87	44.026
633.19	43.999
633.52	44.095
633.85	44.147
634.18	44.147
634.50	44.190
634.83	44.253
635.16	44.313
635.48	44.316
635.81	44.370
636.14	44.507
636.46	44.500
636.79	44.594
637.11	44.653
637.44	44.739
637.77	44.796
638.09	44.843
638.42	44.826
638.75	44.920
639.07	45.002
639.40	45.089
639.73	45.169
640.05	45.320
640.38	45.386
640.70	45.434
641.03	45.425
641.36	45.528
