OOIBase32 Version 2.0.0.6 Data File
++++++++++++++++++++++++++++++++++++
Date: 01-23-2012, 21:59:21
User: Valued Ocean Optics Customer
Spectrometer Serial Number: USB2E2917
Spectrometer Channel: Master
Integration Time (msec): 5
Spectra Averaged: 10
Boxcar Smoothing: 5
Correct for Electrical Dark: Enabled
Time Normalized: Disabled
Dual-beam Reference: Disabled
Reference Channel: Master
Temperature: Not acquired
Spectrometer Type: S2000
ADC Type: USB2000
Number of Pixels in File: 2048
Graph Title: 
>>>>>Begin Spectral Data<<<<<
180.30	0.000
180.67	0.000
181.03	68.508
181.40	-109.188
181.77	11606.733
182.14	-42.590
182.51	190.317
182.88	-2510.858
183.25	-287.039
183.62	-19.851
183.99	67.645
184.36	-49.079
184.73	318.016
185.10	-139.832
185.46	63.158
185.83	4.706
186.20	6.588
186.57	204.434
186.94	75.597
187.31	33.353
187.68	-394.690
188.05	64.311
188.42	46.803
188.78	29.644
189.15	23.845
189.52	13.491
189.89	2.137
190.26	-0.190
190.63	2.329
191.00	-5.915
191.37	-9.263
191.73	-1.330
192.10	1.384
192.47	7.457
192.84	15.510
193.21	17.465
193.58	19.313
193.94	17.457
194.31	1.485
194.68	6.501
195.05	-2.017
195.42	-12.257
195.79	-16.086
196.15	-9.432
196.52	0.623
196.89	-0.143
197.26	0.689
197.63	-2.795
198.00	-5.488
198.36	1.727
198.73	-6.765
199.10	1.017
199.47	-2.070
199.84	-11.491
200.20	-5.236
200.57	-41.654
200.94	-56.756
201.31	-64.307
201.68	-37.417
202.04	-30.216
202.41	-11.199
202.78	-17.518
203.15	-13.373
203.51	-11.499
203.88	-7.125
204.25	-28.160
204.62	-20.853
204.98	-4.066
205.35	7.474
205.72	5.138
206.09	1.481
206.46	-1.721
206.82	-3.796
207.19	-13.670
207.56	-13.328
207.92	-19.143
208.29	-12.802
208.66	-3.811
209.03	-3.985
209.39	-20.728
209.76	-26.363
210.13	-30.541
210.50	-40.605
210.86	-34.451
211.23	-18.789
211.60	-14.816
211.96	-6.485
212.33	-9.693
212.70	-0.429
213.07	-8.878
213.43	-6.437
213.80	-1.023
214.17	-7.399
214.53	-9.070
214.90	0.048
215.27	-1.019
215.63	-5.478
216.00	-1.127
216.37	4.129
216.74	-6.001
217.10	-1.571
217.47	4.577
217.84	-8.772
218.20	8.012
218.57	16.062
218.94	4.940
219.30	-4.157
219.67	-10.280
220.04	-22.371
220.40	-35.385
220.77	-40.936
221.13	-41.826
221.50	-42.444
221.87	-38.206
222.23	-36.054
222.60	-28.838
222.97	-24.338
223.33	-18.949
223.70	-11.153
224.07	-3.659
224.43	5.467
224.80	7.894
225.16	7.972
225.53	7.883
225.90	2.458
226.26	-2.253
226.63	-4.842
226.99	-5.287
227.36	-4.610
227.73	-4.554
228.09	-8.442
228.46	-11.681
228.82	-12.229
229.19	-11.894
229.56	-13.139
229.92	-8.084
230.29	-6.007
230.65	-5.660
231.02	-5.644
231.38	-7.921
231.75	-10.012
232.12	-8.135
232.48	-6.346
232.85	-6.640
233.21	-6.253
233.58	-5.832
233.94	-5.365
234.31	-7.453
234.68	-7.763
235.04	-6.792
235.41	-6.000
235.77	-2.934
236.14	-2.771
236.50	-4.071
236.87	-3.344
237.23	-4.508
237.60	-3.865
237.96	-4.886
238.33	-3.766
238.69	-3.146
239.06	-3.816
239.42	-3.073
239.79	-3.205
240.15	-3.014
240.52	-2.793
240.88	-2.700
241.25	-2.227
241.61	-2.004
241.98	-1.193
242.34	-1.362
242.71	-0.706
243.07	-0.005
243.44	-0.152
243.80	-0.211
244.17	-0.037
244.53	0.069
244.90	-0.015
245.26	-0.037
245.63	-0.095
245.99	-0.512
246.36	-0.361
246.72	-1.027
247.09	-1.521
247.45	-1.599
247.81	-2.012
248.18	-2.527
248.54	-2.518
248.91	-2.698
249.27	-2.460
249.64	-2.656
250.00	-2.328
250.36	-2.034
250.73	-1.553
251.09	-1.107
251.46	-0.725
251.82	-0.166
252.19	0.408
252.55	0.187
252.91	0.313
253.28	-0.838
253.64	-0.650
254.01	-0.836
254.37	-1.508
254.73	-1.066
255.10	-0.632
255.46	-0.766
255.83	-1.076
256.19	-0.879
256.55	-0.795
256.92	-0.802
257.28	-0.373
257.65	-0.136
258.01	0.013
258.37	0.153
258.74	-0.053
259.10	-0.332
259.46	-0.323
259.83	-0.060
260.19	-0.179
260.55	-0.116
260.92	-0.159
261.28	-0.145
261.64	-0.560
262.01	-0.811
262.37	-0.964
262.73	-0.871
263.10	-0.831
263.46	-0.297
263.82	-0.507
264.19	-0.629
264.55	-0.685
264.91	-0.569
265.28	-0.450
265.64	-0.528
266.00	-0.623
266.37	-0.709
266.73	-0.675
267.09	-0.638
267.46	-0.858
267.82	-0.912
268.18	-0.548
268.54	-0.528
268.91	-0.165
269.27	-0.221
269.63	-0.132
270.00	-0.029
270.36	-0.063
270.72	-0.169
271.08	-0.202
271.45	-0.345
271.81	-0.024
272.17	-0.104
272.53	-0.343
272.90	-0.688
273.26	-0.853
273.62	-0.700
273.98	-0.913
274.35	-0.921
274.71	-0.603
275.07	-0.414
275.43	-0.169
275.80	-0.217
276.16	-0.084
276.52	-0.074
276.88	-0.167
277.25	-0.115
277.61	-0.246
277.97	-0.152
278.33	-0.238
278.69	-0.422
279.06	-0.422
279.42	-0.887
279.78	-1.225
280.14	-1.336
280.50	-1.175
280.87	-0.883
281.23	-0.673
281.59	-0.584
281.95	-0.438
282.31	-0.216
282.68	-0.108
283.04	-0.167
283.40	-0.037
283.76	-0.039
284.12	-0.072
284.48	-0.147
284.85	-0.468
285.21	-0.726
285.57	-0.822
285.93	-0.917
286.29	-0.907
286.65	-1.054
287.02	-1.121
287.38	-1.123
287.74	-0.963
288.10	-0.989
288.46	-0.927
288.82	-0.872
289.18	-0.885
289.54	-0.782
289.91	-0.488
290.27	-0.426
290.63	-0.172
290.99	-0.218
291.35	-0.123
291.71	0.080
292.07	-0.060
292.43	-0.152
292.79	0.128
293.16	0.322
293.52	0.223
293.88	0.052
294.24	-0.008
294.60	-0.179
294.96	0.034
295.32	0.086
295.68	-0.227
296.04	-0.079
296.40	0.009
296.76	0.060
297.12	0.102
297.49	0.218
297.85	0.256
298.21	0.330
298.57	0.288
298.93	0.240
299.29	0.170
299.65	0.237
300.01	0.215
300.37	0.309
300.73	0.397
301.09	0.546
301.45	0.528
301.81	0.555
302.17	0.512
302.53	0.623
302.89	0.556
303.25	0.536
303.61	0.800
303.97	0.828
304.33	0.695
304.69	0.437
305.05	0.210
305.41	0.086
305.77	0.150
306.13	0.137
306.49	0.173
306.85	0.312
307.21	0.481
307.57	0.390
307.93	0.348
308.29	0.499
308.65	0.579
309.01	0.684
309.37	0.926
309.73	0.915
310.09	0.930
310.45	0.983
310.81	0.931
311.17	0.725
311.53	0.780
311.89	0.905
312.25	0.870
312.61	0.855
312.96	0.882
313.32	0.805
313.68	0.674
314.04	0.704
314.40	0.663
314.76	0.752
315.12	0.987
315.48	1.019
315.84	0.894
316.20	0.903
316.56	1.019
316.92	0.907
317.27	0.765
317.63	0.778
317.99	0.745
318.35	0.673
318.71	0.537
319.07	0.399
319.43	0.378
319.79	0.412
320.15	0.345
320.50	0.121
320.86	0.242
321.22	0.381
321.58	0.491
321.94	0.524
322.30	0.632
322.66	0.650
323.01	0.680
323.37	0.582
323.73	0.584
324.09	0.674
324.45	0.795
324.81	0.598
325.17	0.459
325.52	0.417
325.88	0.314
326.24	0.200
326.60	0.292
326.96	0.397
327.31	0.405
327.67	0.421
328.03	0.367
328.39	0.252
328.75	0.445
329.11	0.559
329.46	0.487
329.82	0.577
330.18	0.610
330.54	0.518
330.90	0.346
331.25	0.299
331.61	0.217
331.97	0.095
332.33	0.234
332.68	0.125
333.04	0.074
333.40	0.169
333.76	0.108
334.11	0.131
334.47	0.091
334.83	0.123
335.19	0.253
335.54	0.406
335.90	0.508
336.26	0.432
336.62	0.494
336.97	0.400
337.33	0.290
337.69	0.229
338.05	0.120
338.40	0.122
338.76	0.227
339.12	0.200
339.48	0.205
339.83	0.146
340.19	0.192
340.55	0.162
340.90	0.219
341.26	0.207
341.62	0.311
341.97	0.475
342.33	0.596
342.69	0.496
343.04	0.472
343.40	0.389
343.76	0.491
344.12	0.553
344.47	0.583
344.83	0.474
345.19	0.543
345.54	0.567
345.90	0.458
346.26	0.270
346.61	0.306
346.97	0.252
347.32	0.232
347.68	0.166
348.04	0.151
348.39	0.161
348.75	0.373
349.11	0.324
349.46	0.250
349.82	0.271
350.18	0.340
350.53	0.222
350.89	0.248
351.24	0.219
351.60	0.204
351.96	0.186
352.31	0.200
352.67	0.116
353.02	0.138
353.38	0.107
353.74	0.061
354.09	0.087
354.45	0.181
354.80	0.147
355.16	0.133
355.52	0.163
355.87	0.060
356.23	-0.001
356.58	0.045
356.94	0.012
357.29	0.035
357.65	0.030
358.00	0.052
358.36	0.008
358.72	0.050
359.07	0.092
359.43	0.094
359.78	0.182
360.14	0.198
360.49	0.148
360.85	0.159
361.20	0.230
361.56	0.254
361.91	0.249
362.27	0.307
362.62	0.289
362.98	0.228
363.33	0.190
363.69	0.124
364.04	0.110
364.40	0.132
364.75	0.125
365.11	0.102
365.46	0.098
365.82	0.055
366.17	0.010
366.53	0.003
366.88	0.043
367.24	0.107
367.59	0.141
367.95	0.163
368.30	0.131
368.66	0.114
369.01	0.070
369.37	0.071
369.72	0.079
370.08	0.100
370.43	0.106
370.78	0.092
371.14	0.051
371.49	0.052
371.85	0.030
372.20	0.065
372.56	0.113
372.91	0.120
373.26	0.119
373.62	0.101
373.97	0.117
374.33	0.099
374.68	0.126
375.03	0.152
375.39	0.109
375.74	0.123
376.10	0.106
376.45	0.112
376.80	0.089
377.16	0.116
377.51	0.155
377.87	0.081
378.22	0.133
378.57	0.164
378.93	0.134
379.28	0.193
379.63	0.171
379.99	0.199
380.34	0.188
380.70	0.235
381.05	0.255
381.40	0.244
381.76	0.289
382.11	0.289
382.46	0.205
382.82	0.214
383.17	0.210
383.52	0.233
383.88	0.213
384.23	0.209
384.58	0.156
384.94	0.104
385.29	0.099
385.64	0.098
385.99	0.081
386.35	0.167
386.70	0.142
387.05	0.084
387.41	0.081
387.76	0.084
388.11	0.066
388.47	0.136
388.82	0.134
389.17	0.131
389.52	0.138
389.88	0.110
390.23	0.098
390.58	0.115
390.93	0.138
391.29	0.154
391.64	0.144
391.99	0.124
392.34	0.096
392.70	0.127
393.05	0.120
393.40	0.092
393.75	0.099
394.11	0.078
394.46	0.069
394.81	0.033
395.16	-0.019
395.52	-0.038
395.87	-0.031
396.22	-0.070
396.57	-0.133
396.92	-0.152
397.28	-0.137
397.63	-0.152
397.98	-0.174
398.33	-0.169
398.68	-0.129
399.04	-0.098
399.39	-0.082
399.74	-0.089
400.09	-0.091
400.44	-0.073
400.80	-0.080
401.15	-0.117
401.50	-0.099
401.85	-0.063
402.20	-0.064
402.55	-0.056
402.90	-0.095
403.26	-0.091
403.61	-0.075
403.96	-0.040
404.31	-0.054
404.66	-0.048
405.01	-0.029
405.36	-0.041
405.72	-0.081
406.07	-0.086
406.42	-0.115
406.77	-0.117
407.12	-0.147
407.47	-0.149
407.82	-0.178
408.17	-0.169
408.53	-0.172
408.88	-0.144
409.23	-0.152
409.58	-0.177
409.93	-0.197
410.28	-0.177
410.63	-0.174
410.98	-0.174
411.33	-0.218
411.68	-0.238
412.03	-0.229
412.38	-0.197
412.73	-0.205
413.09	-0.202
413.44	-0.178
413.79	-0.141
414.14	-0.131
414.49	-0.109
414.84	-0.075
415.19	-0.022
415.54	0.023
415.89	0.038
416.24	0.023
416.59	0.038
416.94	0.072
417.29	0.093
417.64	0.091
417.99	0.098
418.34	0.117
418.69	0.107
419.04	0.125
419.39	0.126
419.74	0.130
420.09	0.150
420.44	0.148
420.79	0.139
421.14	0.132
421.49	0.130
421.84	0.127
422.19	0.111
422.54	0.128
422.89	0.112
423.24	0.104
423.59	0.102
423.94	0.096
424.29	0.091
424.64	0.077
424.99	0.063
425.34	0.063
425.68	0.046
426.03	0.053
426.38	0.024
426.73	0.019
427.08	0.007
427.43	0.002
427.78	0.000
428.13	-0.014
428.48	-0.002
428.83	0.033
429.18	0.037
429.53	0.052
429.87	0.051
430.22	0.041
430.57	0.030
430.92	0.023
431.27	0.021
431.62	0.006
431.97	-0.004
432.32	-0.004
432.67	-0.030
433.01	-0.044
433.36	-0.036
433.71	-0.049
434.06	-0.039
434.41	-0.025
434.76	-0.009
435.11	-0.013
435.45	-0.019
435.80	-0.009
436.15	-0.011
436.50	0.001
436.85	0.015
437.20	0.012
437.54	0.019
437.89	0.008
438.24	0.005
438.59	-0.010
438.94	0.002
439.29	0.009
439.63	0.004
439.98	0.006
440.33	-0.003
440.68	-0.006
441.03	-0.012
441.37	-0.013
441.72	-0.001
442.07	0.003
442.42	0.011
442.76	0.002
443.11	0.020
443.46	0.036
443.81	0.035
444.16	0.043
444.50	0.037
444.85	0.045
445.20	0.056
445.55	0.059
445.89	0.041
446.24	0.031
446.59	0.022
446.94	-0.002
447.28	-0.013
447.63	-0.030
447.98	-0.044
448.32	-0.042
448.67	-0.063
449.02	-0.089
449.37	-0.107
449.71	-0.106
450.06	-0.118
450.41	-0.108
450.75	-0.102
451.10	-0.127
451.45	-0.128
451.79	-0.137
452.14	-0.165
452.49	-0.174
452.84	-0.183
453.18	-0.197
453.53	-0.201
453.88	-0.189
454.22	-0.199
454.57	-0.185
454.92	-0.161
455.26	-0.142
455.61	-0.135
455.95	-0.106
456.30	-0.088
456.65	-0.075
456.99	-0.065
457.34	-0.048
457.69	-0.029
458.03	-0.023
458.38	-0.022
458.73	-0.023
459.07	-0.021
459.42	-0.019
459.76	-0.035
460.11	-0.062
460.46	-0.081
460.80	-0.070
461.15	-0.098
461.49	-0.151
461.84	-0.158
462.19	-0.189
462.53	-0.203
462.88	-0.240
463.22	-0.251
463.57	-0.241
463.91	-0.222
464.26	-0.200
464.61	-0.225
464.95	-0.219
465.30	-0.208
465.64	-0.216
465.99	-0.210
466.33	-0.218
466.68	-0.200
467.02	-0.194
467.37	-0.199
467.71	-0.217
468.06	-0.241
468.41	-0.235
468.75	-0.228
469.10	-0.244
469.44	-0.267
469.79	-0.270
470.13	-0.264
470.48	-0.293
470.82	-0.323
471.17	-0.340
471.51	-0.347
471.86	-0.337
472.20	-0.348
472.55	-0.349
472.89	-0.342
473.23	-0.337
473.58	-0.349
473.92	-0.364
474.27	-0.363
474.61	-0.356
474.96	-0.371
475.30	-0.375
475.65	-0.376
475.99	-0.373
476.34	-0.372
476.68	-0.365
477.02	-0.360
477.37	-0.358
477.71	-0.339
478.06	-0.316
478.40	-0.273
478.75	-0.226
479.09	-0.171
479.43	-0.126
479.78	-0.088
480.12	-0.064
480.47	-0.025
480.81	0.007
481.15	0.045
481.50	0.071
481.84	0.095
482.19	0.110
482.53	0.132
482.87	0.139
483.22	0.136
483.56	0.132
483.90	0.132
484.25	0.116
484.59	0.111
484.94	0.091
485.28	0.072
485.62	0.056
485.97	0.044
486.31	0.017
486.65	0.005
487.00	-0.001
487.34	-0.005
487.68	-0.018
488.03	-0.029
488.37	-0.045
488.71	-0.053
489.06	-0.053
489.40	-0.063
489.74	-0.083
490.09	-0.092
490.43	-0.113
490.77	-0.135
491.11	-0.165
491.46	-0.181
491.80	-0.196
492.14	-0.228
492.49	-0.247
492.83	-0.285
493.17	-0.320
493.51	-0.341
493.86	-0.367
494.20	-0.396
494.54	-0.424
494.88	-0.431
495.23	-0.440
495.57	-0.453
495.91	-0.446
496.25	-0.459
496.60	-0.459
496.94	-0.461
497.28	-0.468
497.62	-0.474
497.97	-0.468
498.31	-0.465
498.65	-0.488
498.99	-0.504
499.33	-0.513
499.68	-0.528
500.02	-0.538
500.36	-0.559
500.70	-0.572
501.04	-0.575
501.39	-0.590
501.73	-0.592
502.07	-0.599
502.41	-0.588
502.75	-0.594
503.09	-0.593
503.44	-0.586
503.78	-0.576
504.12	-0.567
504.46	-0.548
504.80	-0.541
505.14	-0.523
505.49	-0.535
505.83	-0.518
506.17	-0.503
506.51	-0.490
506.85	-0.492
507.19	-0.484
507.53	-0.487
507.87	-0.489
508.22	-0.488
508.56	-0.497
508.90	-0.505
509.24	-0.509
509.58	-0.518
509.92	-0.535
510.26	-0.538
510.60	-0.535
510.94	-0.550
511.28	-0.556
511.63	-0.553
511.97	-0.572
512.31	-0.572
512.65	-0.570
512.99	-0.565
513.33	-0.563
513.67	-0.549
514.01	-0.530
514.35	-0.511
514.69	-0.489
515.03	-0.464
515.37	-0.447
515.71	-0.421
516.05	-0.408
516.39	-0.395
516.73	-0.375
517.07	-0.366
517.41	-0.364
517.75	-0.376
518.09	-0.385
518.43	-0.400
518.77	-0.422
519.11	-0.427
519.45	-0.444
519.79	-0.459
520.13	-0.484
520.47	-0.509
520.81	-0.518
521.15	-0.519
521.49	-0.512
521.83	-0.511
522.17	-0.487
522.51	-0.461
522.85	-0.442
523.19	-0.406
523.53	-0.356
523.87	-0.309
524.21	-0.257
524.55	-0.217
524.89	-0.185
525.23	-0.152
525.57	-0.117
525.91	-0.098
526.25	-0.072
526.58	-0.061
526.92	-0.053
527.26	-0.050
527.60	-0.044
527.94	-0.052
528.28	-0.067
528.62	-0.079
528.96	-0.094
529.30	-0.109
529.64	-0.121
529.97	-0.141
530.31	-0.157
530.65	-0.177
530.99	-0.191
531.33	-0.204
531.67	-0.211
532.01	-0.211
532.35	-0.209
532.68	-0.218
533.02	-0.236
533.36	-0.252
533.70	-0.263
534.04	-0.279
534.38	-0.285
534.71	-0.303
535.05	-0.326
535.39	-0.340
535.73	-0.341
536.07	-0.358
536.41	-0.356
536.74	-0.339
537.08	-0.325
537.42	-0.310
537.76	-0.282
538.10	-0.266
538.43	-0.240
538.77	-0.218
539.11	-0.197
539.45	-0.186
539.79	-0.159
540.12	-0.151
540.46	-0.154
540.80	-0.162
541.14	-0.175
541.47	-0.181
541.81	-0.188
542.15	-0.205
542.49	-0.222
542.82	-0.248
543.16	-0.274
543.50	-0.313
543.84	-0.336
544.17	-0.362
544.51	-0.371
544.85	-0.380
545.18	-0.406
545.52	-0.429
545.86	-0.463
546.20	-0.490
546.53	-0.508
546.87	-0.542
547.21	-0.575
547.54	-0.612
547.88	-0.627
548.22	-0.651
548.55	-0.670
548.89	-0.672
549.23	-0.683
549.56	-0.675
549.90	-0.655
550.24	-0.647
550.57	-0.640
550.91	-0.634
551.25	-0.630
551.58	-0.630
551.92	-0.631
552.26	-0.643
552.59	-0.673
552.93	-0.687
553.27	-0.678
553.60	-0.711
553.94	-0.733
554.27	-0.743
554.61	-0.735
554.95	-0.721
555.28	-0.720
555.62	-0.720
555.95	-0.719
556.29	-0.717
556.63	-0.709
556.96	-0.734
557.30	-0.725
557.63	-0.734
557.97	-0.741
558.31	-0.740
558.64	-0.744
558.98	-0.743
559.31	-0.745
559.65	-0.726
559.98	-0.720
560.32	-0.718
560.65	-0.706
560.99	-0.697
561.33	-0.673
561.66	-0.650
562.00	-0.655
562.33	-0.658
562.67	-0.661
563.00	-0.643
563.34	-0.642
563.67	-0.624
564.01	-0.610
564.34	-0.622
564.68	-0.611
565.01	-0.609
565.35	-0.622
565.68	-0.600
566.02	-0.590
566.35	-0.559
566.69	-0.561
567.02	-0.556
567.36	-0.543
567.69	-0.531
568.03	-0.508
568.36	-0.498
568.69	-0.496
569.03	-0.468
569.36	-0.472
569.70	-0.477
570.03	-0.488
570.37	-0.483
570.70	-0.479
571.04	-0.480
571.37	-0.487
571.70	-0.492
572.04	-0.503
572.37	-0.496
572.71	-0.502
573.04	-0.505
573.37	-0.504
573.71	-0.520
574.04	-0.526
574.38	-0.539
574.71	-0.551
575.04	-0.557
575.38	-0.556
575.71	-0.570
576.05	-0.581
576.38	-0.591
576.71	-0.618
577.05	-0.637
577.38	-0.639
577.71	-0.635
578.05	-0.648
578.38	-0.653
578.71	-0.683
579.05	-0.709
579.38	-0.712
579.71	-0.753
580.05	-0.774
580.38	-0.769
580.71	-0.778
581.05	-0.793
581.38	-0.807
581.71	-0.812
582.05	-0.835
582.38	-0.819
582.71	-0.818
583.04	-0.837
583.38	-0.808
583.71	-0.783
584.04	-0.781
584.38	-0.777
584.71	-0.774
585.04	-0.769
585.37	-0.755
585.71	-0.746
586.04	-0.743
586.37	-0.729
586.70	-0.694
587.04	-0.709
587.37	-0.717
587.70	-0.714
588.03	-0.696
588.37	-0.688
588.70	-0.695
589.03	-0.701
589.36	-0.698
589.69	-0.730
590.03	-0.755
590.36	-0.789
590.69	-0.785
591.02	-0.794
591.35	-0.805
591.69	-0.819
592.02	-0.799
592.35	-0.810
592.68	-0.811
593.01	-0.801
593.35	-0.769
593.68	-0.737
594.01	-0.729
594.34	-0.716
594.67	-0.715
595.00	-0.707
595.34	-0.707
595.67	-0.738
596.00	-0.749
596.33	-0.759
596.66	-0.790
596.99	-0.819
597.32	-0.861
597.65	-0.874
597.99	-0.910
598.32	-0.958
598.65	-0.972
598.98	-0.993
599.31	-0.997
599.64	-0.976
599.97	-0.971
600.30	-0.964
600.63	-0.940
600.96	-0.924
601.30	-0.893
601.63	-0.863
601.96	-0.826
602.29	-0.835
602.62	-0.821
602.95	-0.838
603.28	-0.858
603.61	-0.865
603.94	-0.866
604.27	-0.862
604.60	-0.871
604.93	-0.915
605.26	-0.931
605.59	-0.964
605.92	-0.973
606.25	-0.999
606.58	-0.993
606.91	-0.999
607.24	-0.991
607.57	-1.010
607.90	-1.030
608.23	-1.063
608.56	-1.055
608.89	-1.094
609.22	-1.100
609.55	-1.138
609.88	-1.183
610.21	-1.212
610.54	-1.246
610.87	-1.314
611.20	-1.353
611.53	-1.404
611.86	-1.408
612.19	-1.459
612.52	-1.471
612.85	-1.501
613.18	-1.486
613.51	-1.493
613.84	-1.535
614.17	-1.574
614.49	-1.584
614.82	-1.564
615.15	-1.569
615.48	-1.580
615.81	-1.587
616.14	-1.592
616.47	-1.579
616.80	-1.591
617.13	-1.586
617.46	-1.561
617.78	-1.546
618.11	-1.545
618.44	-1.565
618.77	-1.595
619.10	-1.618
619.43	-1.627
619.76	-1.636
620.09	-1.671
620.41	-1.694
620.74	-1.692
621.07	-1.738
621.40	-1.770
621.73	-1.767
622.06	-1.750
622.38	-1.709
622.71	-1.700
623.04	-1.682
623.37	-1.649
623.70	-1.601
624.02	-1.574
624.35	-1.557
624.68	-1.512
625.01	-1.437
625.34	-1.433
625.66	-1.404
625.99	-1.408
626.32	-1.383
626.65	-1.398
626.98	-1.419
627.30	-1.477
627.63	-1.475
627.96	-1.485
628.29	-1.515
628.61	-1.562
628.94	-1.570
629.27	-1.639
629.60	-1.636
629.92	-1.681
630.25	-1.671
630.58	-1.703
630.91	-1.685
631.23	-1.709
631.56	-1.717
631.89	-1.689
632.21	-1.689
632.54	-1.717
632.87	-1.706
633.19	-1.733
633.52	-1.743
633.85	-1.753
634.18	-1.765
634.50	-1.781
634.83	-1.800
635.16	-1.813
635.48	-1.842
635.81	-1.864
636.14	-1.870
636.46	-1.926
636.79	-1.939
637.11	-1.950
637.44	-1.978
637.77	-1.968
638.09	-2.004
638.42	-2.037
638.75	-2.056
639.07	-2.080
639.40	-2.109
639.73	-2.100
640.05	-2.069
640.38	-2.072
640.70	-2.061
