OOIBase32 Version 2.0.0.6 Data File
++++++++++++++++++++++++++++++++++++
Date: 01-20-2012, 23:20:24
User: Valued Ocean Optics Customer
Spectrometer Serial Number: USB2E2917
Spectrometer Channel: Master
Integration Time (msec): 3
Spectra Averaged: 10
Boxcar Smoothing: 5
Correct for Electrical Dark: Enabled
Time Normalized: Disabled
Dual-beam Reference: Disabled
Reference Channel: Master
Temperature: Not acquired
Spectrometer Type: S2000
ADC Type: USB2000
Number of Pixels in File: 2048
Graph Title: 
>>>>>Begin Spectral Data<<<<<
180.30	0.000
180.67	0.000
181.03	-11.923
181.40	-361.496
181.77	156.397
182.14	-3067.971
182.51	195.622
182.88	-66.945
183.25	-21.166
183.62	970.189
183.99	62.906
184.36	19.942
184.73	-30.261
185.10	-9.240
185.46	234.934
185.83	771.744
186.20	-30.258
186.57	32.392
186.94	-25.079
187.31	22.903
187.68	187.228
188.05	4.047
188.42	-4.189
188.78	-3.502
189.15	-1.986
189.52	9.539
189.89	-1.302
190.26	0.918
190.63	23.662
191.00	32.018
191.37	24.012
191.73	5.219
192.10	18.659
192.47	24.894
192.84	24.154
193.21	28.907
193.58	19.042
193.94	13.899
194.31	28.433
194.68	7.068
195.05	15.289
195.42	25.852
195.79	21.872
196.15	24.810
196.52	33.154
196.89	25.655
197.26	23.682
197.63	31.644
198.00	25.761
198.36	0.205
198.73	232.627
199.10	-2663.117
199.47	414.843
199.84	-46.920
200.20	-60.000
200.57	-176.105
200.94	-869.358
201.31	-375.829
201.68	-152.446
202.04	-29.241
202.41	-36.871
202.78	-43.191
203.15	-27.702
203.51	-35.890
203.88	-67.224
204.25	-72.003
204.62	-56.862
204.98	-37.832
205.35	-37.791
205.72	-31.444
206.09	-7.416
206.46	28.898
206.82	54.054
207.19	33.860
207.56	44.418
207.92	37.615
208.29	34.209
208.66	34.641
209.03	26.000
209.39	32.501
209.76	32.924
210.13	23.933
210.50	24.642
210.86	20.728
211.23	18.450
211.60	20.201
211.96	36.236
212.33	31.284
212.70	28.810
213.07	45.157
213.43	41.057
213.80	32.585
214.17	22.414
214.53	19.747
214.90	22.611
215.27	26.224
215.63	35.759
216.00	29.740
216.37	31.342
216.74	38.341
217.10	33.778
217.47	32.260
217.84	32.494
218.20	31.651
218.57	23.878
218.94	22.158
219.30	29.328
219.67	20.345
220.04	18.400
220.40	22.307
220.77	12.630
221.13	9.245
221.50	9.734
221.87	7.102
222.23	5.176
222.60	8.281
222.97	10.566
223.33	17.992
223.70	18.621
224.07	14.035
224.43	18.039
224.80	17.703
225.16	18.592
225.53	15.179
225.90	13.494
226.26	13.213
226.63	12.798
226.99	11.494
227.36	8.779
227.73	8.344
228.09	9.636
228.46	6.851
228.82	6.301
229.19	6.007
229.56	6.965
229.92	7.738
230.29	7.916
230.65	6.965
231.02	7.346
231.38	6.825
231.75	5.579
232.12	4.022
232.48	4.443
232.85	5.102
233.21	3.934
233.58	4.019
233.94	5.363
234.31	5.005
234.68	4.992
235.04	4.433
235.41	6.170
235.77	6.649
236.14	7.242
236.50	8.023
236.87	7.858
237.23	7.562
237.60	6.599
237.96	4.409
238.33	4.803
238.69	4.306
239.06	4.160
239.42	3.972
239.79	4.106
240.15	3.967
240.52	3.673
240.88	2.900
241.25	3.024
241.61	3.026
241.98	3.269
242.34	3.434
242.71	3.311
243.07	3.226
243.44	3.115
243.80	2.884
244.17	3.107
244.53	3.136
244.90	3.409
245.26	3.636
245.63	3.598
245.99	3.409
246.36	3.236
246.72	3.166
247.09	3.109
247.45	2.897
247.81	3.168
248.18	3.240
248.54	3.105
248.91	3.648
249.27	3.551
249.64	3.337
250.00	3.353
250.36	3.213
250.73	3.759
251.09	3.928
251.46	4.004
251.82	3.315
252.19	2.644
252.55	2.644
252.91	1.640
253.28	0.947
253.64	1.568
254.01	1.803
254.37	2.112
254.73	2.178
255.10	2.301
255.46	2.282
255.83	2.250
256.19	2.634
256.55	2.746
256.92	2.671
257.28	2.937
257.65	3.018
258.01	3.188
258.37	3.009
258.74	2.970
259.10	2.902
259.46	2.953
259.83	3.170
260.19	3.180
260.55	3.226
260.92	3.426
261.28	3.289
261.64	3.142
262.01	2.779
262.37	3.114
262.73	3.158
263.10	3.512
263.46	3.494
263.82	3.568
264.19	3.232
264.55	3.194
264.91	3.441
265.28	3.384
265.64	3.294
266.00	3.598
266.37	3.542
266.73	3.484
267.09	3.090
267.46	3.420
267.82	3.345
268.18	3.482
268.54	3.270
268.91	3.400
269.27	3.657
269.63	3.682
270.00	3.568
270.36	3.564
270.72	3.505
271.08	3.756
271.45	3.416
271.81	3.346
272.17	3.304
272.53	3.646
272.90	3.487
273.26	3.256
273.62	3.040
273.98	3.116
274.35	3.180
274.71	3.336
275.07	2.833
275.43	2.863
275.80	2.953
276.16	2.793
276.52	2.583
276.88	2.311
277.25	2.536
277.61	2.630
277.97	2.548
278.33	2.401
278.69	2.229
279.06	2.376
279.42	2.540
279.78	2.610
280.14	2.832
280.50	2.557
280.87	2.527
281.23	2.444
281.59	2.470
281.95	2.256
282.31	2.069
282.68	2.122
283.04	2.375
283.40	2.469
283.76	2.526
284.12	2.422
284.48	2.723
284.85	2.997
285.21	3.099
285.57	3.015
285.93	3.267
286.29	3.329
286.65	3.273
287.02	3.264
287.38	2.946
287.74	3.018
288.10	3.069
288.46	2.928
288.82	2.804
289.18	2.798
289.54	2.889
289.91	2.803
290.27	2.881
290.63	2.954
290.99	2.957
291.35	3.024
291.71	2.695
292.07	2.768
292.43	2.909
292.79	3.019
293.16	2.842
293.52	2.939
293.88	2.987
294.24	3.095
294.60	3.037
294.96	3.203
295.32	3.404
295.68	3.644
296.04	3.465
296.40	3.268
296.76	2.973
297.12	2.997
297.49	2.930
297.85	2.751
298.21	2.782
298.57	2.745
298.93	2.543
299.29	2.446
299.65	2.323
300.01	2.400
300.37	2.642
300.73	2.864
301.09	3.164
301.45	3.320
301.81	3.510
302.17	3.559
302.53	3.932
302.89	3.947
303.25	3.886
303.61	3.935
303.97	4.138
304.33	4.041
304.69	3.898
305.05	3.539
305.41	3.433
305.77	3.507
306.13	3.289
306.49	3.123
306.85	3.070
307.21	3.179
307.57	3.056
307.93	2.884
308.29	2.922
308.65	3.020
309.01	3.209
309.37	3.299
309.73	3.236
310.09	3.316
310.45	3.176
310.81	3.281
311.17	3.197
311.53	3.213
311.89	3.259
312.25	3.220
312.61	3.154
312.96	3.113
313.32	3.049
313.68	3.186
314.04	3.223
314.40	3.175
314.76	2.921
315.12	2.973
315.48	3.051
315.84	3.024
316.20	2.992
316.56	3.147
316.92	3.243
317.27	3.202
317.63	3.123
317.99	3.173
318.35	3.406
318.71	3.607
319.07	3.809
319.43	3.739
319.79	3.693
320.15	3.693
320.50	3.676
320.86	3.644
321.22	3.762
321.58	3.726
321.94	3.574
322.30	3.564
322.66	3.571
323.01	3.388
323.37	3.355
323.73	3.471
324.09	3.463
324.45	3.564
324.81	3.630
325.17	3.582
325.52	3.725
325.88	3.979
326.24	4.007
326.60	4.120
326.96	4.296
327.31	4.512
327.67	4.572
328.03	4.860
328.39	4.869
328.75	4.847
329.11	5.061
329.46	4.973
329.82	4.724
330.18	4.876
330.54	4.842
330.90	4.769
331.25	4.826
331.61	5.038
331.97	5.073
332.33	5.072
332.68	5.161
333.04	5.117
333.40	5.267
333.76	5.565
334.11	5.566
334.47	5.587
334.83	5.728
335.19	5.684
335.54	5.562
335.90	5.420
336.26	5.510
336.62	5.648
336.97	5.681
337.33	5.717
337.69	5.677
338.05	5.707
338.40	5.778
338.76	5.694
339.12	5.799
339.48	5.794
339.83	5.810
340.19	5.681
340.55	5.618
340.90	5.636
341.26	5.572
341.62	5.648
341.97	5.544
342.33	5.502
342.69	5.498
343.04	5.533
343.40	5.621
343.76	5.725
344.12	5.772
344.47	5.716
344.83	5.644
345.19	5.623
345.54	5.557
345.90	5.613
346.26	5.543
346.61	5.617
346.97	5.492
347.32	5.434
347.68	5.436
348.04	5.497
348.39	5.513
348.75	5.566
349.11	5.613
349.46	5.712
349.82	5.711
350.18	5.805
350.53	5.786
350.89	5.899
351.24	5.895
351.60	5.849
351.96	5.744
352.31	5.727
352.67	5.781
353.02	5.782
353.38	5.702
353.74	5.711
354.09	5.798
354.45	5.906
354.80	5.916
355.16	5.919
355.52	5.943
355.87	6.011
356.23	6.075
356.58	6.051
356.94	6.055
357.29	6.177
357.65	6.260
358.00	6.252
358.36	6.202
358.72	6.271
359.07	6.362
359.43	6.429
359.78	6.446
360.14	6.386
360.49	6.489
360.85	6.520
361.20	6.471
361.56	6.484
361.91	6.454
362.27	6.493
362.62	6.469
362.98	6.466
363.33	6.480
363.69	6.513
364.04	6.621
364.40	6.579
364.75	6.607
365.11	6.623
365.46	6.608
365.82	6.728
366.17	6.801
366.53	6.846
366.88	6.914
367.24	6.878
367.59	6.915
367.95	6.938
368.30	6.962
368.66	6.979
369.01	6.898
369.37	6.936
369.72	6.954
370.08	6.879
370.43	6.853
370.78	6.850
371.14	6.896
371.49	6.905
371.85	6.958
372.20	6.964
372.56	6.922
372.91	6.999
373.26	7.017
373.62	7.014
373.97	7.047
374.33	7.040
374.68	7.016
375.03	7.046
375.39	7.097
375.74	7.083
376.10	7.060
376.45	7.104
376.80	7.154
377.16	7.135
377.51	7.106
377.87	7.125
378.22	7.188
378.57	7.276
378.93	7.297
379.28	7.339
379.63	7.317
379.99	7.376
380.34	7.448
380.70	7.470
381.05	7.499
381.40	7.519
381.76	7.583
382.11	7.612
382.46	7.613
382.82	7.643
383.17	7.661
383.52	7.733
383.88	7.763
384.23	7.755
384.58	7.788
384.94	7.849
385.29	7.910
385.64	7.961
385.99	7.958
386.35	8.000
386.70	8.031
387.05	7.956
387.41	7.950
387.76	7.993
388.11	8.016
388.47	8.017
388.82	8.025
389.17	8.054
389.52	8.053
389.88	8.082
390.23	8.119
390.58	8.119
390.93	8.179
391.29	8.170
391.64	8.110
391.99	8.133
392.34	8.129
392.70	8.126
393.05	8.083
393.40	8.075
393.75	8.094
394.11	8.029
394.46	8.081
394.81	8.116
395.16	8.153
395.52	8.170
395.87	8.142
396.22	8.194
396.57	8.179
396.92	8.182
397.28	8.196
397.63	8.167
397.98	8.110
398.33	8.032
398.68	8.007
399.04	8.036
399.39	8.030
399.74	7.969
400.09	7.980
400.44	8.001
400.80	7.977
401.15	7.978
401.50	8.007
401.85	8.058
402.20	8.107
402.55	8.095
402.90	8.064
403.26	8.121
403.61	8.206
403.96	8.192
404.31	8.167
404.66	8.208
405.01	8.210
405.36	8.181
405.72	8.201
406.07	8.124
406.42	8.162
406.77	8.171
407.12	8.138
407.47	8.110
407.82	8.082
408.17	8.085
408.53	8.088
408.88	8.081
409.23	8.132
409.58	8.121
409.93	8.188
410.28	8.157
410.63	8.176
410.98	8.193
411.33	8.191
411.68	8.191
412.03	8.185
412.38	8.120
412.73	8.064
413.09	7.997
413.44	7.976
413.79	7.914
414.14	7.885
414.49	7.846
414.84	7.831
415.19	7.812
415.54	7.769
415.89	7.748
416.24	7.753
416.59	7.741
416.94	7.715
417.29	7.691
417.64	7.677
417.99	7.671
418.34	7.639
418.69	7.567
419.04	7.548
419.39	7.555
419.74	7.546
420.09	7.497
420.44	7.464
420.79	7.447
421.14	7.417
421.49	7.386
421.84	7.359
422.19	7.326
422.54	7.351
422.89	7.322
423.24	7.283
423.59	7.249
423.94	7.265
424.29	7.279
424.64	7.283
424.99	7.286
425.34	7.297
425.68	7.303
426.03	7.324
426.38	7.308
426.73	7.348
427.08	7.386
427.43	7.399
427.78	7.424
428.13	7.438
428.48	7.449
428.83	7.461
429.18	7.490
429.53	7.501
429.87	7.516
430.22	7.541
430.57	7.537
430.92	7.520
431.27	7.535
431.62	7.531
431.97	7.525
432.32	7.505
432.67	7.493
433.01	7.473
433.36	7.498
433.71	7.504
434.06	7.495
434.41	7.513
434.76	7.511
435.11	7.524
435.45	7.512
435.80	7.534
436.15	7.545
436.50	7.586
436.85	7.606
437.20	7.598
437.54	7.592
437.89	7.605
438.24	7.589
438.59	7.597
438.94	7.582
439.29	7.598
439.63	7.579
439.98	7.561
440.33	7.526
440.68	7.514
441.03	7.493
441.37	7.473
441.72	7.426
442.07	7.415
442.42	7.384
442.76	7.363
443.11	7.325
443.46	7.303
443.81	7.291
444.16	7.278
444.50	7.257
444.85	7.238
445.20	7.210
445.55	7.193
445.89	7.147
446.24	7.135
446.59	7.128
446.94	7.103
447.28	7.083
447.63	7.077
447.98	7.064
448.32	7.034
448.67	7.010
449.02	6.996
449.37	7.024
449.71	7.031
450.06	7.030
450.41	7.030
450.75	7.036
451.10	7.021
451.45	6.997
451.79	6.963
452.14	6.971
452.49	6.972
452.84	6.962
453.18	6.932
453.53	6.943
453.88	6.967
454.22	6.965
454.57	6.970
454.92	6.981
455.26	6.989
455.61	7.059
455.95	7.068
456.30	7.074
456.65	7.113
456.99	7.134
457.34	7.148
457.69	7.147
458.03	7.156
458.38	7.194
458.73	7.208
459.07	7.254
459.42	7.248
459.76	7.263
460.11	7.284
460.46	7.309
460.80	7.341
461.15	7.371
461.49	7.394
461.84	7.429
462.19	7.462
462.53	7.533
462.88	7.577
463.22	7.620
463.57	7.679
463.91	7.735
464.26	7.797
464.61	7.843
464.95	7.879
465.30	7.938
465.64	7.973
465.99	8.015
466.33	8.057
466.68	8.087
467.02	8.143
467.37	8.205
467.71	8.223
468.06	8.225
468.41	8.252
468.75	8.273
469.10	8.313
469.44	8.335
469.79	8.339
470.13	8.337
470.48	8.325
470.82	8.336
471.17	8.323
471.51	8.350
471.86	8.365
472.20	8.355
472.55	8.376
472.89	8.365
473.23	8.368
473.58	8.356
473.92	8.363
474.27	8.356
474.61	8.298
474.96	8.288
475.30	8.278
475.65	8.274
475.99	8.279
476.34	8.264
476.68	8.250
477.02	8.236
477.37	8.233
477.71	8.197
478.06	8.216
478.40	8.231
478.75	8.210
479.09	8.218
479.43	8.225
479.78	8.230
480.12	8.244
480.47	8.256
480.81	8.281
481.15	8.296
481.50	8.314
481.84	8.339
482.19	8.375
482.53	8.407
482.87	8.428
483.22	8.449
483.56	8.469
483.90	8.477
484.25	8.491
484.59	8.506
484.94	8.515
485.28	8.536
485.62	8.530
485.97	8.522
486.31	8.541
486.65	8.560
487.00	8.591
487.34	8.622
487.68	8.668
488.03	8.700
488.37	8.735
488.71	8.794
489.06	8.834
489.40	8.896
489.74	8.950
490.09	8.976
490.43	9.022
490.77	9.071
491.11	9.129
491.46	9.193
491.80	9.268
492.14	9.345
492.49	9.425
492.83	9.526
493.17	9.640
493.51	9.767
493.86	9.934
494.20	10.071
494.54	10.208
494.88	10.325
495.23	10.465
495.57	10.607
495.91	10.757
496.25	10.902
496.60	11.063
496.94	11.216
497.28	11.389
497.62	11.550
497.97	11.754
498.31	11.928
498.65	12.152
498.99	12.360
499.33	12.580
499.68	12.801
500.02	13.030
500.36	13.271
500.70	13.485
501.04	13.722
501.39	13.987
501.73	14.225
502.07	14.504
502.41	14.783
502.75	15.074
503.09	15.353
503.44	15.629
503.78	15.934
504.12	16.225
504.46	16.580
504.80	16.879
505.14	17.186
505.49	17.485
505.83	17.790
506.17	18.075
506.51	18.335
506.85	18.623
507.19	18.931
507.53	19.222
507.87	19.536
508.22	19.806
508.56	20.144
508.90	20.454
509.24	20.771
509.58	21.066
509.92	21.378
510.26	21.732
510.60	22.069
510.94	22.376
511.28	22.687
511.63	22.997
511.97	23.308
512.31	23.604
512.65	23.921
512.99	24.227
513.33	24.559
513.67	24.854
514.01	25.176
514.35	25.491
514.69	25.794
515.03	26.079
515.37	26.342
515.71	26.629
516.05	26.865
516.39	27.084
516.73	27.315
517.07	27.552
517.41	27.779
517.75	27.973
518.09	28.167
518.43	28.396
518.77	28.621
519.11	28.829
519.45	29.017
519.79	29.270
520.13	29.534
520.47	29.794
520.81	29.997
521.15	30.256
521.49	30.492
521.83	30.720
522.17	30.885
522.51	31.074
522.85	31.283
523.19	31.509
523.53	31.705
523.87	31.934
524.21	32.158
524.55	32.382
524.89	32.589
525.23	32.794
525.57	32.977
525.91	33.188
526.25	33.334
526.58	33.475
526.92	33.612
527.26	33.750
527.60	33.852
527.94	33.940
528.28	34.042
528.62	34.111
528.96	34.171
529.30	34.245
529.64	34.267
529.97	34.358
530.31	34.419
530.65	34.466
530.99	34.511
531.33	34.565
531.67	34.640
532.01	34.718
532.35	34.799
532.68	34.856
533.02	34.907
533.36	34.958
533.70	34.994
534.04	35.065
534.38	35.131
534.71	35.175
535.05	35.236
535.39	35.302
535.73	35.329
536.07	35.390
536.41	35.433
536.74	35.526
537.08	35.620
537.42	35.667
537.76	35.733
538.10	35.828
538.43	35.937
538.77	36.011
539.11	36.056
539.45	36.127
539.79	36.173
540.12	36.249
540.46	36.280
540.80	36.340
541.14	36.407
541.47	36.453
541.81	36.478
542.15	36.493
542.49	36.528
542.82	36.601
543.16	36.650
543.50	36.715
543.84	36.762
544.17	36.807
544.51	36.844
544.85	36.904
545.18	36.981
545.52	37.048
545.86	37.111
546.20	37.152
546.53	37.166
546.87	37.256
547.21	37.303
547.54	37.319
547.88	37.339
548.22	37.369
548.55	37.404
548.89	37.409
549.23	37.456
549.56	37.527
549.90	37.593
550.24	37.630
550.57	37.616
550.91	37.601
551.25	37.641
551.58	37.681
551.92	37.698
552.26	37.741
552.59	37.759
552.93	37.735
553.27	37.783
553.60	37.786
553.94	37.842
554.27	37.834
554.61	37.902
554.95	37.939
555.28	37.999
555.62	38.021
555.95	37.997
556.29	38.024
556.63	38.086
556.96	38.022
557.30	38.061
557.63	38.033
557.97	38.070
558.31	38.048
558.64	38.073
558.98	38.078
559.31	38.116
559.65	38.169
559.98	38.144
560.32	38.104
560.65	38.091
560.99	38.066
561.33	38.102
561.66	38.080
562.00	38.124
562.33	38.120
562.67	38.092
563.00	38.057
563.34	38.015
563.67	38.024
564.01	38.033
564.34	38.093
564.68	38.144
565.01	38.080
565.35	38.060
565.68	38.024
566.02	38.008
566.35	37.993
566.69	37.993
567.02	37.970
567.36	37.964
567.69	37.946
568.03	37.903
568.36	37.837
568.69	37.845
569.03	37.835
569.36	37.781
569.70	37.769
570.03	37.793
570.37	37.778
570.70	37.765
571.04	37.732
571.37	37.711
571.70	37.696
572.04	37.682
572.37	37.697
572.71	37.710
573.04	37.734
573.37	37.747
573.71	37.701
574.04	37.724
574.38	37.786
574.71	37.808
575.04	37.863
575.38	37.857
575.71	37.896
576.05	37.901
576.38	37.883
576.71	37.883
577.05	37.885
577.38	37.926
577.71	37.922
578.05	37.866
578.38	37.855
578.71	37.813
579.05	37.751
579.38	37.712
579.71	37.639
580.05	37.633
580.38	37.578
580.71	37.546
581.05	37.500
581.38	37.442
581.71	37.427
582.05	37.402
582.38	37.341
582.71	37.359
583.04	37.301
583.38	37.315
583.71	37.257
584.04	37.248
584.38	37.176
584.71	37.146
585.04	37.090
585.37	36.990
585.71	36.928
586.04	36.898
586.37	36.848
586.70	36.852
587.04	36.808
587.37	36.792
587.70	36.745
588.03	36.722
588.37	36.655
588.70	36.620
589.03	36.593
589.36	36.566
589.69	36.518
590.03	36.466
590.36	36.395
590.69	36.276
591.02	36.183
591.35	36.122
591.69	36.058
592.02	36.026
592.35	35.937
592.68	35.904
593.01	35.795
593.35	35.735
593.68	35.706
594.01	35.639
594.34	35.639
594.67	35.580
595.00	35.509
595.34	35.413
595.67	35.318
596.00	35.330
596.33	35.283
596.66	35.299
596.99	35.281
597.32	35.185
597.65	35.140
597.99	35.062
598.32	35.045
598.65	35.028
598.98	35.041
599.31	35.031
599.64	34.894
599.97	34.781
600.30	34.668
600.63	34.578
600.96	34.549
601.30	34.476
601.63	34.436
601.96	34.380
602.29	34.353
602.62	34.324
602.95	34.293
603.28	34.253
603.61	34.232
603.94	34.239
604.27	34.198
604.60	34.211
604.93	34.190
605.26	34.118
605.59	34.065
605.92	33.967
606.25	33.897
606.58	33.794
606.91	33.763
607.24	33.718
607.57	33.696
607.90	33.699
608.23	33.645
608.56	33.615
608.89	33.630
609.22	33.586
609.55	33.571
609.88	33.580
610.21	33.605
610.54	33.560
610.87	33.503
611.20	33.388
611.53	33.272
611.86	33.209
612.19	33.172
612.52	33.086
612.85	33.074
613.18	33.057
613.51	32.924
613.84	32.815
614.17	32.825
614.49	32.776
614.82	32.781
615.15	32.705
615.48	32.649
615.81	32.514
616.14	32.500
616.47	32.466
616.80	32.366
617.13	32.353
617.46	32.345
617.78	32.283
618.11	32.289
618.44	32.231
618.77	32.264
619.10	32.204
619.43	32.253
619.76	32.146
620.09	32.074
620.41	32.052
620.74	31.936
621.07	31.820
621.40	31.711
621.73	31.642
622.06	31.485
622.38	31.386
622.71	31.285
623.04	31.187
623.37	31.158
623.70	31.071
624.02	31.000
624.35	30.966
624.68	30.978
625.01	30.919
625.34	30.872
625.66	30.873
625.99	30.824
626.32	30.840
626.65	30.802
626.98	30.843
627.30	30.787
627.63	30.734
627.96	30.682
628.29	30.600
628.61	30.598
628.94	30.526
629.27	30.481
629.60	30.515
629.92	30.435
630.25	30.390
630.58	30.271
630.91	30.323
631.23	30.283
631.56	30.292
631.89	30.198
632.21	30.169
632.54	30.086
632.87	29.986
633.19	29.902
633.52	29.831
633.85	29.770
634.18	29.717
634.50	29.648
634.83	29.656
635.16	29.598
635.48	29.641
635.81	29.572
636.14	29.649
636.46	29.651
636.79	29.573
637.11	29.515
637.44	29.472
637.77	29.487
638.09	29.447
638.42	29.377
638.75	29.305
639.07	29.287
639.40	29.267
639.73	29.167
640.05	29.118
640.38	29.129
640.70	29.179
641.03	29.160
641.36	29.035
641.68	28.955
642.01	28.943
642.33	28.906
642.66	28.714
642.98	28.690
643.31	28.652
643.64	28.680
643.96	28.598
644.29	28.526
644.61	28.497
644.94	28.448
645.26	28.378
645.59	28.288
645.91	28.248
646.24	28.302
646.56	28.293
646.89	28.205
647.22	28.123
647.54	28.103
647.87	28.096
648.19	28.050
648.52	28.009
648.84	27.992
