OOIBase32 Version 2.0.0.6 Data File
++++++++++++++++++++++++++++++++++++
Date: 01-23-2012, 23:07:08
User: Valued Ocean Optics Customer
Spectrometer Serial Number: USB2E2917
Spectrometer Channel: Master
Integration Time (msec): 5
Spectra Averaged: 10
Boxcar Smoothing: 5
Correct for Electrical Dark: Enabled
Time Normalized: Disabled
Dual-beam Reference: Disabled
Reference Channel: Master
Temperature: Not acquired
Spectrometer Type: S2000
ADC Type: USB2000
Number of Pixels in File: 2048
Graph Title: 
>>>>>Begin Spectral Data<<<<<
180.30	0.000
180.67	0.000
181.03	-110.658
181.40	451.013
181.77	-15889.450
182.14	-2.731
182.51	-639.024
182.88	67.419
183.25	30.543
183.62	45.868
183.99	201.143
184.36	5.371
184.73	21.959
185.10	84.817
185.46	466.051
185.83	-380.822
186.20	-15.949
186.57	159.355
186.94	169.425
187.31	31.436
187.68	136.432
188.05	84.800
188.42	131.737
188.78	299.716
189.15	1065.661
189.52	-280.003
189.89	-88.609
190.26	-73.225
190.63	-18.193
191.00	2.183
191.37	0.935
191.73	14.356
192.10	10.035
192.47	18.809
192.84	20.887
193.21	26.647
193.58	18.961
193.94	6.035
194.31	12.725
194.68	8.605
195.05	3.767
195.42	17.450
195.79	6.326
196.15	11.054
196.52	0.540
196.89	-8.223
197.26	-33.647
197.63	-11.277
198.00	23.096
198.36	13.305
198.73	-0.743
199.10	-14.442
199.47	-34.258
199.84	-34.462
200.20	-22.119
200.57	-9.074
200.94	-4.781
201.31	12.355
201.68	5.524
202.04	-7.223
202.41	-13.714
202.78	-22.007
203.15	-0.554
203.51	5.990
203.88	-8.550
204.25	-13.724
204.62	-41.295
204.98	-51.593
205.35	-75.635
205.72	-84.567
206.09	-67.695
206.46	-119.213
206.82	-97.035
207.19	-115.397
207.56	-191.865
207.92	-161.710
208.29	-189.586
208.66	-109.433
209.03	-84.461
209.39	-39.275
209.76	-39.615
210.13	-74.347
210.50	-37.203
210.86	-15.280
211.23	-8.579
211.60	11.357
211.96	17.387
212.33	14.725
212.70	-5.411
213.07	-10.850
213.43	-55.217
213.80	-64.048
214.17	-35.923
214.53	-29.475
214.90	-29.868
215.27	-25.433
215.63	-32.898
216.00	-23.640
216.37	-11.812
216.74	-16.638
217.10	-7.206
217.47	-6.397
217.84	6.344
218.20	6.412
218.57	10.937
218.94	13.827
219.30	11.479
219.67	4.559
220.04	0.176
220.40	-5.686
220.77	-6.523
221.13	-11.410
221.50	-7.431
221.87	-12.326
222.23	-18.091
222.60	-30.813
222.97	-35.991
223.33	-31.014
223.70	-19.080
224.07	-17.841
224.43	-18.842
224.80	-14.886
225.16	-13.755
225.53	-12.254
225.90	-10.570
226.26	-8.295
226.63	-3.949
226.99	-2.983
227.36	-2.806
227.73	-2.027
228.09	-2.353
228.46	0.382
228.82	2.271
229.19	2.417
229.56	2.884
229.92	3.119
230.29	2.948
230.65	1.494
231.02	1.615
231.38	0.761
231.75	-0.972
232.12	-3.363
232.48	-6.675
232.85	-9.810
233.21	-10.658
233.58	-11.193
233.94	-10.358
234.31	-10.312
234.68	-9.398
235.04	-10.053
235.41	-8.968
235.77	-6.864
236.14	-4.645
236.50	-2.113
236.87	-1.352
237.23	-0.334
237.60	-0.685
237.96	-1.314
238.33	-1.355
238.69	-1.556
239.06	-1.095
239.42	-0.971
239.79	-2.087
240.15	-2.131
240.52	-2.027
240.88	-1.950
241.25	-2.003
241.61	-1.577
241.98	-1.062
242.34	-0.721
242.71	-0.219
243.07	0.146
243.44	0.251
243.80	0.650
244.17	1.064
244.53	0.860
244.90	0.857
245.26	0.859
245.63	0.727
245.99	0.576
246.36	0.339
246.72	0.172
247.09	-0.173
247.45	-0.111
247.81	0.152
248.18	-0.389
248.54	-0.133
248.91	-0.414
249.27	-0.363
249.64	-0.147
250.00	0.242
250.36	0.480
250.73	0.374
251.09	0.735
251.46	1.029
251.82	0.581
252.19	0.883
252.55	0.606
252.91	1.049
253.28	1.018
253.64	0.802
254.01	0.123
254.37	0.306
254.73	0.845
255.10	0.999
255.46	1.119
255.83	1.213
256.19	1.269
256.55	1.217
256.92	1.318
257.28	1.219
257.65	1.458
258.01	1.547
258.37	1.571
258.74	1.353
259.10	0.974
259.46	0.635
259.83	0.426
260.19	0.321
260.55	0.386
260.92	0.320
261.28	0.320
261.64	0.474
262.01	0.420
262.37	0.618
262.73	0.882
263.10	1.459
263.46	1.629
263.82	1.704
264.19	1.716
264.55	1.279
264.91	0.982
265.28	0.775
265.64	0.337
266.00	0.355
266.37	-0.103
266.73	-0.274
267.09	-0.141
267.46	0.169
267.82	0.212
268.18	0.493
268.54	0.824
268.91	0.881
269.27	1.053
269.63	1.523
270.00	1.464
270.36	1.675
270.72	1.811
271.08	1.547
271.45	1.261
271.81	1.264
272.17	0.955
272.53	0.832
272.90	1.007
273.26	1.112
273.62	0.605
273.98	0.502
274.35	0.350
274.71	0.350
275.07	0.511
275.43	0.807
275.80	0.929
276.16	1.078
276.52	0.972
276.88	0.824
277.25	0.518
277.61	0.471
277.97	0.343
278.33	0.334
278.69	-0.027
279.06	-0.125
279.42	-0.235
279.78	-0.233
280.14	-0.224
280.50	0.048
280.87	0.060
281.23	0.248
281.59	0.322
281.95	0.595
282.31	0.805
282.68	0.917
283.04	0.934
283.40	0.927
283.76	1.029
284.12	1.238
284.48	1.248
284.85	1.323
285.21	1.258
285.57	1.273
285.93	1.204
286.29	1.017
286.65	1.158
287.02	1.462
287.38	1.378
287.74	1.313
288.10	1.100
288.46	1.062
288.82	0.962
289.18	1.086
289.54	1.011
289.91	1.039
290.27	1.247
290.63	1.295
290.99	1.168
291.35	1.399
291.71	1.511
292.07	1.484
292.43	1.400
292.79	1.462
293.16	1.375
293.52	1.649
293.88	1.757
294.24	1.543
294.60	1.342
294.96	1.222
295.32	1.112
295.68	1.062
296.04	1.104
296.40	1.218
296.76	1.345
297.12	1.376
297.49	1.088
297.85	0.807
298.21	0.745
298.57	0.702
298.93	0.697
299.29	0.640
299.65	0.600
300.01	0.689
300.37	0.630
300.73	0.657
301.09	0.625
301.45	0.880
301.81	1.063
302.17	1.318
302.53	1.265
302.89	1.294
303.25	1.311
303.61	1.308
303.97	1.224
304.33	1.201
304.69	1.151
305.05	1.068
305.41	0.923
305.77	1.115
306.13	1.044
306.49	1.150
306.85	1.176
307.21	1.318
307.57	1.332
307.93	1.297
308.29	1.388
308.65	1.305
309.01	1.394
309.37	1.361
309.73	1.139
310.09	1.176
310.45	1.254
310.81	1.280
311.17	1.113
311.53	1.144
311.89	1.153
312.25	0.951
312.61	0.956
312.96	0.991
313.32	1.055
313.68	1.135
314.04	1.038
314.40	1.029
314.76	0.849
315.12	0.806
315.48	0.809
315.84	0.824
316.20	0.927
316.56	0.930
316.92	0.802
317.27	0.721
317.63	0.693
317.99	0.614
318.35	0.549
318.71	0.607
319.07	0.756
319.43	0.691
319.79	0.748
320.15	0.829
320.50	0.865
320.86	0.961
321.22	1.064
321.58	1.086
321.94	1.142
322.30	1.166
322.66	1.157
323.01	1.092
323.37	1.009
323.73	0.908
324.09	0.699
324.45	0.762
324.81	0.657
325.17	0.585
325.52	0.549
325.88	0.515
326.24	0.507
326.60	0.496
326.96	0.414
327.31	0.473
327.67	0.492
328.03	0.645
328.39	0.508
328.75	0.597
329.11	0.612
329.46	0.779
329.82	0.835
330.18	0.781
330.54	0.831
330.90	0.932
331.25	0.937
331.61	0.980
331.97	0.993
332.33	1.123
332.68	1.119
333.04	1.198
333.40	0.996
333.76	0.996
334.11	0.974
334.47	1.036
334.83	0.984
335.19	0.934
335.54	0.930
335.90	0.846
336.26	0.723
336.62	0.704
336.97	0.613
337.33	0.608
337.69	0.547
338.05	0.512
338.40	0.397
338.76	0.487
339.12	0.529
339.48	0.417
339.83	0.445
340.19	0.491
340.55	0.566
340.90	0.575
341.26	0.609
341.62	0.618
341.97	0.688
342.33	0.749
342.69	0.693
343.04	0.610
343.40	0.573
343.76	0.540
344.12	0.503
344.47	0.471
344.83	0.533
345.19	0.577
345.54	0.689
345.90	0.686
346.26	0.750
346.61	0.794
346.97	0.888
347.32	1.034
347.68	1.090
348.04	1.066
348.39	1.023
348.75	1.001
349.11	0.934
349.46	0.899
349.82	0.877
350.18	0.715
350.53	0.662
350.89	0.674
351.24	0.596
351.60	0.585
351.96	0.645
352.31	0.639
352.67	0.651
353.02	0.672
353.38	0.614
353.74	0.664
354.09	0.734
354.45	0.754
354.80	0.788
355.16	0.851
355.52	0.861
355.87	0.811
356.23	0.872
356.58	0.875
356.94	0.920
357.29	0.996
357.65	1.005
358.00	0.946
358.36	0.948
358.72	0.913
359.07	0.905
359.43	0.921
359.78	0.928
360.14	0.903
360.49	0.858
360.85	0.884
361.20	0.780
361.56	0.744
361.91	0.814
362.27	0.819
362.62	0.836
362.98	0.861
363.33	0.838
363.69	0.855
364.04	0.884
364.40	0.906
364.75	0.848
365.11	0.894
365.46	0.911
365.82	0.949
366.17	0.944
366.53	0.935
366.88	0.925
367.24	0.937
367.59	0.955
367.95	0.994
368.30	1.007
368.66	1.056
369.01	1.025
369.37	1.076
369.72	1.069
370.08	1.159
370.43	1.176
370.78	1.216
371.14	1.222
371.49	1.283
371.85	1.235
372.20	1.284
372.56	1.273
372.91	1.328
373.26	1.306
373.62	1.275
373.97	1.207
374.33	1.219
374.68	1.233
375.03	1.319
375.39	1.302
375.74	1.338
376.10	1.357
376.45	1.419
376.80	1.477
377.16	1.505
377.51	1.581
377.87	1.674
378.22	1.684
378.57	1.684
378.93	1.674
379.28	1.756
379.63	1.780
379.99	1.812
380.34	1.864
380.70	1.898
381.05	1.967
381.40	1.972
381.76	2.033
382.11	2.080
382.46	2.168
382.82	2.207
383.17	2.206
383.52	2.263
383.88	2.278
384.23	2.288
384.58	2.286
384.94	2.293
385.29	2.357
385.64	2.356
385.99	2.431
386.35	2.452
386.70	2.487
387.05	2.492
387.41	2.523
387.76	2.542
388.11	2.567
388.47	2.586
388.82	2.645
389.17	2.672
389.52	2.688
389.88	2.696
390.23	2.690
390.58	2.744
390.93	2.789
391.29	2.832
391.64	2.902
391.99	2.953
392.34	3.031
392.70	3.043
393.05	3.021
393.40	3.029
393.75	3.037
394.11	3.090
394.46	3.074
394.81	3.113
395.16	3.099
395.52	3.072
395.87	3.063
396.22	3.111
396.57	3.094
396.92	3.119
397.28	3.146
397.63	3.146
397.98	3.116
398.33	3.113
398.68	3.070
399.04	3.082
399.39	3.091
399.74	3.101
400.09	3.042
400.44	3.077
400.80	3.095
401.15	3.050
401.50	3.075
401.85	3.111
402.20	3.108
402.55	3.146
402.90	3.138
403.26	3.152
403.61	3.126
403.96	3.140
404.31	3.135
404.66	3.139
405.01	3.186
405.36	3.193
405.72	3.169
406.07	3.174
406.42	3.133
406.77	3.131
407.12	3.132
407.47	3.181
407.82	3.168
408.17	3.181
408.53	3.185
408.88	3.161
409.23	3.139
409.58	3.142
409.93	3.185
410.28	3.232
410.63	3.233
410.98	3.214
411.33	3.164
411.68	3.206
412.03	3.212
412.38	3.188
412.73	3.234
413.09	3.254
413.44	3.258
413.79	3.253
414.14	3.256
414.49	3.275
414.84	3.300
415.19	3.345
415.54	3.350
415.89	3.348
416.24	3.387
416.59	3.385
416.94	3.398
417.29	3.440
417.64	3.446
417.99	3.475
418.34	3.490
418.69	3.504
419.04	3.495
419.39	3.495
419.74	3.500
420.09	3.512
420.44	3.516
420.79	3.523
421.14	3.503
421.49	3.508
421.84	3.492
422.19	3.500
422.54	3.497
422.89	3.492
423.24	3.499
423.59	3.490
423.94	3.448
424.29	3.437
424.64	3.435
424.99	3.423
425.34	3.379
425.68	3.365
426.03	3.326
426.38	3.309
426.73	3.303
427.08	3.274
427.43	3.287
427.78	3.341
428.13	3.329
428.48	3.336
428.83	3.332
429.18	3.360
429.53	3.369
429.87	3.364
430.22	3.369
430.57	3.378
430.92	3.377
431.27	3.371
431.62	3.336
431.97	3.345
432.32	3.312
432.67	3.313
433.01	3.312
433.36	3.292
433.71	3.294
434.06	3.276
434.41	3.272
434.76	3.298
435.11	3.300
435.45	3.325
435.80	3.332
436.15	3.349
436.50	3.366
436.85	3.388
437.20	3.395
437.54	3.403
437.89	3.426
438.24	3.436
438.59	3.433
438.94	3.448
439.29	3.431
439.63	3.444
439.98	3.447
440.33	3.441
440.68	3.448
441.03	3.479
441.37	3.489
441.72	3.490
442.07	3.509
442.42	3.527
442.76	3.535
443.11	3.559
443.46	3.573
443.81	3.593
444.16	3.616
444.50	3.608
444.85	3.601
445.20	3.611
445.55	3.622
445.89	3.609
446.24	3.605
446.59	3.597
446.94	3.598
447.28	3.581
447.63	3.572
447.98	3.571
448.32	3.586
448.67	3.583
449.02	3.568
449.37	3.549
449.71	3.565
450.06	3.572
450.41	3.588
450.75	3.592
451.10	3.598
451.45	3.592
451.79	3.583
452.14	3.568
452.49	3.579
452.84	3.592
453.18	3.595
453.53	3.584
453.88	3.578
454.22	3.577
454.57	3.588
454.92	3.603
455.26	3.630
455.61	3.668
455.95	3.697
456.30	3.715
456.65	3.747
456.99	3.783
457.34	3.808
457.69	3.822
458.03	3.823
458.38	3.829
458.73	3.830
459.07	3.829
459.42	3.800
459.76	3.771
460.11	3.737
460.46	3.698
460.80	3.666
461.15	3.643
461.49	3.609
461.84	3.613
462.19	3.608
462.53	3.601
462.88	3.597
463.22	3.606
463.57	3.620
463.91	3.636
464.26	3.653
464.61	3.647
464.95	3.620
465.30	3.631
465.64	3.619
465.99	3.625
466.33	3.630
466.68	3.625
467.02	3.618
467.37	3.599
467.71	3.595
468.06	3.593
468.41	3.592
468.75	3.615
469.10	3.601
469.44	3.582
469.79	3.526
470.13	3.497
470.48	3.476
470.82	3.460
471.17	3.473
471.51	3.463
471.86	3.446
472.20	3.441
472.55	3.437
472.89	3.463
473.23	3.469
473.58	3.494
473.92	3.509
474.27	3.495
474.61	3.494
474.96	3.494
475.30	3.503
475.65	3.499
475.99	3.500
476.34	3.489
476.68	3.460
477.02	3.466
477.37	3.464
477.71	3.500
478.06	3.551
478.40	3.625
478.75	3.705
479.09	3.811
479.43	3.926
479.78	4.042
480.12	4.158
480.47	4.283
480.81	4.403
481.15	4.513
481.50	4.616
481.84	4.740
482.19	4.856
482.53	4.948
482.87	5.004
483.22	5.004
483.56	4.957
483.90	4.882
484.25	4.781
484.59	4.664
484.94	4.569
485.28	4.470
485.62	4.363
485.97	4.245
486.31	4.156
486.65	4.086
487.00	4.058
487.34	4.063
487.68	4.083
488.03	4.121
488.37	4.166
488.71	4.190
489.06	4.196
489.40	4.190
489.74	4.179
490.09	4.165
490.43	4.150
490.77	4.136
491.11	4.121
491.46	4.114
491.80	4.092
492.14	4.072
492.49	4.064
492.83	4.048
493.17	4.028
493.51	4.036
493.86	4.020
494.20	4.011
494.54	4.014
494.88	4.034
495.23	4.048
495.57	4.085
495.91	4.119
496.25	4.152
496.60	4.185
496.94	4.205
497.28	4.219
497.62	4.255
497.97	4.297
498.31	4.335
498.65	4.341
498.99	4.367
499.33	4.406
499.68	4.440
500.02	4.472
500.36	4.509
500.70	4.559
501.04	4.594
501.39	4.620
501.73	4.668
502.07	4.722
502.41	4.797
502.75	4.873
503.09	4.917
503.44	4.975
503.78	5.009
504.12	5.058
504.46	5.124
504.80	5.188
505.14	5.292
505.49	5.360
505.83	5.416
506.17	5.484
506.51	5.550
506.85	5.622
507.19	5.691
507.53	5.771
507.87	5.856
508.22	5.928
508.56	5.996
508.90	6.048
509.24	6.107
509.58	6.183
509.92	6.264
510.26	6.333
510.60	6.413
510.94	6.488
511.28	6.574
511.63	6.639
511.97	6.726
512.31	6.825
512.65	6.901
512.99	6.998
513.33	7.121
513.67	7.230
514.01	7.381
514.35	7.514
514.69	7.637
515.03	7.737
515.37	7.883
515.71	8.006
516.05	8.111
516.39	8.214
516.73	8.331
517.07	8.404
517.41	8.482
517.75	8.525
518.09	8.579
518.43	8.633
518.77	8.698
519.11	8.741
519.45	8.783
519.79	8.871
520.13	8.938
520.47	9.011
520.81	9.110
521.15	9.221
521.49	9.335
521.83	9.447
522.17	9.551
522.51	9.695
522.85	9.840
523.19	10.010
523.53	10.180
523.87	10.395
524.21	10.582
524.55	10.751
524.89	10.903
525.23	11.050
525.57	11.189
525.91	11.328
526.25	11.438
526.58	11.540
526.92	11.616
527.26	11.668
527.60	11.681
527.94	11.697
528.28	11.709
528.62	11.706
528.96	11.698
529.30	11.685
529.64	11.667
529.97	11.651
530.31	11.631
530.65	11.621
530.99	11.628
531.33	11.663
531.67	11.680
532.01	11.703
532.35	11.712
532.68	11.737
533.02	11.744
533.36	11.746
533.70	11.737
534.04	11.731
534.38	11.729
534.71	11.712
535.05	11.700
535.39	11.702
535.73	11.686
536.07	11.717
536.41	11.723
536.74	11.747
537.08	11.795
537.42	11.857
537.76	11.916
538.10	11.973
538.43	12.024
538.77	12.087
539.11	12.128
539.45	12.189
539.79	12.238
540.12	12.275
540.46	12.293
540.80	12.290
541.14	12.283
541.47	12.251
541.81	12.227
542.15	12.217
542.49	12.181
542.82	12.146
543.16	12.116
543.50	12.070
543.84	12.035
544.17	12.004
544.51	11.997
544.85	11.981
545.18	11.993
545.52	11.982
545.86	11.958
546.20	11.953
546.53	11.938
546.87	11.902
547.21	11.888
547.54	11.854
547.88	11.861
548.22	11.827
548.55	11.825
548.89	11.807
549.23	11.791
549.56	11.807
549.90	11.818
550.24	11.841
550.57	11.851
550.91	11.845
551.25	11.875
551.58	11.857
551.92	11.873
552.26	11.850
552.59	11.860
552.93	11.879
553.27	11.855
553.60	11.819
553.94	11.786
554.27	11.764
554.61	11.751
554.95	11.710
555.28	11.715
555.62	11.682
555.95	11.680
556.29	11.660
556.63	11.638
556.96	11.622
557.30	11.591
557.63	11.564
557.97	11.535
558.31	11.489
558.64	11.476
558.98	11.435
559.31	11.432
559.65	11.386
559.98	11.347
560.32	11.321
560.65	11.292
560.99	11.262
561.33	11.246
561.66	11.206
562.00	11.188
562.33	11.157
562.67	11.135
563.00	11.080
563.34	11.058
563.67	11.027
564.01	10.952
564.34	10.905
564.68	10.881
565.01	10.836
565.35	10.825
565.68	10.789
566.02	10.725
566.35	10.661
566.69	10.611
567.02	10.557
567.36	10.508
567.69	10.463
568.03	10.431
568.36	10.361
568.69	10.282
569.03	10.206
569.36	10.154
569.70	10.114
570.03	10.083
570.37	10.040
570.70	10.006
571.04	9.964
571.37	9.927
571.70	9.873
572.04	9.848
572.37	9.819
572.71	9.772
573.04	9.733
573.37	9.706
573.71	9.650
574.04	9.610
574.38	9.550
574.71	9.502
575.04	9.460
575.38	9.413
575.71	9.347
576.05	9.303
576.38	9.266
576.71	9.192
577.05	9.114
577.38	9.065
577.71	9.010
578.05	8.954
578.38	8.898
578.71	8.844
579.05	8.782
579.38	8.743
579.71	8.700
580.05	8.628
580.38	8.600
580.71	8.564
581.05	8.533
581.38	8.480
581.71	8.449
582.05	8.407
582.38	8.384
582.71	8.339
583.04	8.326
583.38	8.279
583.71	8.267
584.04	8.258
584.38	8.247
584.71	8.232
585.04	8.236
585.37	8.244
585.71	8.252
586.04	8.252
586.37	8.279
586.70	8.266
587.04	8.284
587.37	8.290
587.70	8.285
588.03	8.293
588.37	8.292
588.70	8.255
589.03	8.211
589.36	8.217
589.69	8.164
590.03	8.142
590.36	8.100
590.69	8.064
591.02	8.025
591.35	7.987
591.69	7.959
592.02	7.944
592.35	7.947
592.68	7.965
593.01	7.905
593.35	7.920
593.68	7.920
594.01	7.923
594.34	7.903
594.67	7.919
595.00	7.911
595.34	7.876
595.67	7.822
596.00	7.803
596.33	7.747
596.66	7.723
596.99	7.668
597.32	7.598
597.65	7.552
597.99	7.510
598.32	7.432
598.65	7.352
598.98	7.316
599.31	7.299
599.64	7.291
599.97	7.264
600.30	7.262
600.63	7.260
600.96	7.268
601.30	7.279
601.63	7.315
601.96	7.341
602.29	7.360
602.62	7.351
602.95	7.341
603.28	7.310
603.61	7.295
603.94	7.268
604.27	7.273
604.60	7.228
604.93	7.198
605.26	7.137
605.59	7.096
605.92	7.076
606.25	7.061
606.58	7.046
606.91	7.008
607.24	6.979
607.57	6.928
607.90	6.888
608.23	6.857
608.56	6.821
608.89	6.786
609.22	6.755
609.55	6.698
609.88	6.650
610.21	6.594
610.54	6.522
610.87	6.471
611.20	6.451
611.53	6.383
611.86	6.354
612.19	6.276
612.52	6.229
612.85	6.181
613.18	6.153
613.51	6.072
613.84	6.010
614.17	5.987
614.49	5.976
614.82	5.899
615.15	5.863
615.48	5.807
615.81	5.791
616.14	5.782
616.47	5.746
616.80	5.707
617.13	5.685
617.46	5.662
617.78	5.639
618.11	5.600
618.44	5.609
618.77	5.586
619.10	5.579
619.43	5.560
619.76	5.502
620.09	5.508
620.41	5.507
620.74	5.543
621.07	5.574
621.40	5.604
621.73	5.599
622.06	5.619
622.38	5.627
622.71	5.653
623.04	5.684
623.37	5.759
623.70	5.724
624.02	5.752
624.35	5.766
624.68	5.758
625.01	5.753
625.34	5.766
625.66	5.780
625.99	5.808
626.32	5.814
626.65	5.811
626.98	5.772
627.30	5.790
627.63	5.745
627.96	5.685
628.29	5.641
628.61	5.623
628.94	5.588
629.27	5.521
629.60	5.439
629.92	5.417
630.25	5.356
630.58	5.315
630.91	5.277
631.23	5.232
631.56	5.235
631.89	5.223
632.21	5.175
632.54	5.150
632.87	5.149
633.19	5.130
633.52	5.062
633.85	5.051
634.18	5.008
634.50	4.944
634.83	4.912
635.16	4.833
635.48	4.742
635.81	4.686
636.14	4.591
636.46	4.493
636.79	4.422
637.11	4.330
637.44	4.202
637.77	4.144
638.09	4.096
638.42	3.991
638.75	3.938
639.07	3.899
639.40	3.850
639.73	3.834
640.05	3.801
640.38	3.813
640.70	3.807
641.03	3.788
641.36	3.723
641.68	3.661
642.01	3.667
642.33	3.614
642.66	3.612
642.98	3.519
643.31	3.467
643.64	3.441
643.96	3.383
644.29	3.353
644.61	3.362
644.94	3.380
645.26	3.417
645.59	3.438
645.91	3.454
646.24	3.428
646.56	3.486
646.89	3.486
647.22	3.480
647.54	3.490
647.87	3.486
648.19	3.476
648.52	3.458
648.84	3.446
649.17	3.391
649.49	3.400
649.82	3.397
650.14	3.391
650.47	3.403
650.79	3.407
651.11	3.378
651.44	3.361
651.76	3.350
652.09	3.367
652.41	3.373
652.74	3.407
653.06	3.423
653.39	3.441
653.71	3.446
654.04	3.409
654.36	3.412
