OOIBase32 Version 2.0.0.6 Data File
++++++++++++++++++++++++++++++++++++
Date: 01-23-2012, 23:07:28
User: Valued Ocean Optics Customer
Spectrometer Serial Number: USB2E2917
Spectrometer Channel: Master
Integration Time (msec): 5
Spectra Averaged: 10
Boxcar Smoothing: 5
Correct for Electrical Dark: Enabled
Time Normalized: Disabled
Dual-beam Reference: Disabled
Reference Channel: Master
Temperature: Not acquired
Spectrometer Type: S2000
ADC Type: USB2000
Number of Pixels in File: 2048
Graph Title: 
>>>>>Begin Spectral Data<<<<<
180.30	0.000
180.67	0.000
181.03	-30.035
181.40	318.699
181.77	-13159.633
182.14	70.716
182.51	-203.525
182.88	-111.024
183.25	13.411
183.62	-5.706
183.99	329.218
184.36	111.948
184.73	105.950
185.10	63.977
185.46	-571.881
185.83	101.705
186.20	125.780
186.57	361.961
186.94	-14.476
187.31	45.496
187.68	25.836
188.05	-1.546
188.42	-2.186
188.78	63.154
189.15	200.476
189.52	-5.610
189.89	3.200
190.26	11.277
190.63	24.611
191.00	18.603
191.37	19.106
191.73	22.368
192.10	20.003
192.47	19.293
192.84	16.827
193.21	25.478
193.58	13.133
193.94	8.060
194.31	3.786
194.68	-9.602
195.05	-12.567
195.42	-27.008
195.79	-42.584
196.15	-59.713
196.52	-61.488
196.89	-74.449
197.26	-103.029
197.63	-62.120
198.00	-45.431
198.36	-52.233
198.73	-60.636
199.10	-52.339
199.47	-22.685
199.84	-11.334
200.20	-15.907
200.57	-17.114
200.94	-14.848
201.31	2.450
201.68	-5.313
202.04	-10.399
202.41	-4.856
202.78	-15.070
203.15	-21.664
203.51	-30.304
203.88	-32.240
204.25	-24.394
204.62	-44.231
204.98	-67.279
205.35	-76.332
205.72	-76.541
206.09	-75.031
206.46	-152.315
206.82	-129.157
207.19	-110.940
207.56	-157.463
207.92	-139.285
208.29	-147.632
208.66	-98.570
209.03	-76.039
209.39	-41.098
209.76	-40.224
210.13	-71.625
210.50	-33.902
210.86	-27.382
211.23	-26.403
211.60	-25.109
211.96	-12.698
212.33	-13.534
212.70	-14.234
213.07	-18.002
213.43	-63.941
213.80	-79.796
214.17	-44.384
214.53	-39.900
214.90	-29.112
215.27	-27.570
215.63	-19.559
216.00	-21.429
216.37	-7.021
216.74	-14.900
217.10	-3.305
217.47	3.260
217.84	9.999
218.20	5.523
218.57	10.247
218.94	9.037
219.30	3.142
219.67	-11.525
220.04	-9.279
220.40	-17.291
220.77	-17.928
221.13	-18.374
221.50	-12.490
221.87	-15.227
222.23	-13.412
222.60	-21.347
222.97	-19.378
223.33	-13.128
223.70	-5.610
224.07	-7.891
224.43	-10.472
224.80	-7.747
225.16	-9.521
225.53	-10.982
225.90	-10.271
226.26	-6.348
226.63	-4.633
226.99	-2.510
227.36	-0.553
227.73	-0.106
228.09	-0.182
228.46	2.133
228.82	4.772
229.19	5.090
229.56	6.175
229.92	8.116
230.29	6.911
230.65	7.719
231.02	4.421
231.38	0.951
231.75	0.386
232.12	-1.343
232.48	-4.159
232.85	-8.064
233.21	-8.483
233.58	-10.494
233.94	-11.405
234.31	-13.385
234.68	-12.642
235.04	-11.667
235.41	-9.209
235.77	-8.152
236.14	-5.909
236.50	-3.539
236.87	-2.506
237.23	-0.913
237.60	-0.962
237.96	-1.480
238.33	-0.847
238.69	-1.513
239.06	-0.958
239.42	-1.512
239.79	-2.293
240.15	-2.201
240.52	-1.660
240.88	-1.736
241.25	-2.344
241.61	-1.799
241.98	-1.290
242.34	-1.437
242.71	-1.062
243.07	-0.803
243.44	-0.165
243.80	-0.061
244.17	-0.127
244.53	-0.602
244.90	-0.397
245.26	-0.049
245.63	-0.121
245.99	-0.265
246.36	-0.119
246.72	-0.106
247.09	-0.543
247.45	-0.591
247.81	-0.003
248.18	0.079
248.54	0.314
248.91	-0.098
249.27	-0.356
249.64	-0.312
250.00	-0.131
250.36	-0.315
250.73	-0.551
251.09	-0.307
251.46	-0.526
251.82	-1.252
252.19	-1.599
252.55	-2.019
252.91	-1.587
253.28	-1.607
253.64	-1.875
254.01	-2.016
254.37	-1.256
254.73	-0.925
255.10	-0.194
255.46	-0.024
255.83	0.203
256.19	0.353
256.55	0.307
256.92	0.445
257.28	0.410
257.65	0.568
258.01	0.571
258.37	0.441
258.74	0.206
259.10	-0.232
259.46	-0.389
259.83	-0.556
260.19	-0.667
260.55	-0.414
260.92	-0.426
261.28	-0.210
261.64	0.011
262.01	0.084
262.37	0.027
262.73	0.280
263.10	0.722
263.46	0.610
263.82	0.756
264.19	0.903
264.55	0.358
264.91	0.181
265.28	-0.079
265.64	-0.403
266.00	-0.308
266.37	-0.302
266.73	-0.157
267.09	-0.417
267.46	-0.193
267.82	-0.232
268.18	-0.055
268.54	0.216
268.91	0.200
269.27	0.332
269.63	0.616
270.00	0.593
270.36	0.691
270.72	0.636
271.08	0.619
271.45	0.491
271.81	0.581
272.17	0.551
272.53	0.603
272.90	0.795
273.26	0.926
273.62	0.798
273.98	0.803
274.35	0.652
274.71	0.825
275.07	0.985
275.43	1.341
275.80	1.368
276.16	1.134
276.52	0.933
276.88	0.880
277.25	0.530
277.61	0.198
277.97	-0.090
278.33	-0.063
278.69	-0.328
279.06	-0.263
279.42	-0.398
279.78	-0.252
280.14	-0.014
280.50	0.353
280.87	0.258
281.23	0.271
281.59	0.527
281.95	0.770
282.31	0.907
282.68	0.938
283.04	0.995
283.40	0.998
283.76	0.877
284.12	1.091
284.48	0.933
284.85	0.987
285.21	1.158
285.57	1.119
285.93	1.104
286.29	0.987
286.65	1.015
287.02	1.239
287.38	1.132
287.74	1.188
288.10	0.796
288.46	0.829
288.82	0.723
289.18	0.624
289.54	0.513
289.91	0.566
290.27	0.645
290.63	0.718
290.99	0.413
291.35	0.453
291.71	0.461
292.07	0.523
292.43	0.422
292.79	0.387
293.16	0.421
293.52	0.787
293.88	0.815
294.24	0.881
294.60	0.863
294.96	0.842
295.32	0.917
295.68	0.954
296.04	0.987
296.40	1.119
296.76	1.258
297.12	1.240
297.49	0.976
297.85	0.885
298.21	0.767
298.57	0.603
298.93	0.658
299.29	0.595
299.65	0.487
300.01	0.563
300.37	0.645
300.73	0.756
301.09	0.889
301.45	1.209
301.81	1.338
302.17	1.431
302.53	1.514
302.89	1.529
303.25	1.673
303.61	1.750
303.97	1.609
304.33	1.602
304.69	1.548
305.05	1.388
305.41	1.147
305.77	1.132
306.13	0.964
306.49	0.878
306.85	0.950
307.21	0.815
307.57	0.816
307.93	0.943
308.29	0.930
308.65	0.915
309.01	0.950
309.37	0.983
309.73	0.956
310.09	1.183
310.45	1.339
310.81	1.408
311.17	1.420
311.53	1.364
311.89	1.386
312.25	1.306
312.61	1.246
312.96	1.287
313.32	1.270
313.68	1.233
314.04	0.973
314.40	0.979
314.76	0.764
315.12	0.867
315.48	0.965
315.84	0.910
316.20	0.920
316.56	1.016
316.92	0.918
317.27	0.960
317.63	1.018
317.99	1.017
318.35	0.966
318.71	1.075
319.07	1.074
319.43	1.022
319.79	1.024
320.15	1.056
320.50	0.919
320.86	1.005
321.22	0.946
321.58	0.861
321.94	0.940
322.30	0.918
322.66	0.799
323.01	0.657
323.37	0.703
323.73	0.720
324.09	0.683
324.45	0.812
324.81	0.652
325.17	0.672
325.52	0.696
325.88	0.676
326.24	0.623
326.60	0.678
326.96	0.734
327.31	0.721
327.67	0.604
328.03	0.572
328.39	0.400
328.75	0.583
329.11	0.639
329.46	0.701
329.82	0.744
330.18	0.799
330.54	0.789
330.90	0.747
331.25	0.664
331.61	0.843
331.97	0.932
332.33	1.134
332.68	1.128
333.04	1.136
333.40	1.039
333.76	0.978
334.11	0.959
334.47	1.018
334.83	1.045
335.19	1.119
335.54	1.103
335.90	1.047
336.26	0.978
336.62	0.863
336.97	0.700
337.33	0.729
337.69	0.770
338.05	0.781
338.40	0.664
338.76	0.695
339.12	0.667
339.48	0.573
339.83	0.558
340.19	0.484
340.55	0.587
340.90	0.640
341.26	0.579
341.62	0.586
341.97	0.547
342.33	0.645
342.69	0.628
343.04	0.667
343.40	0.645
343.76	0.597
344.12	0.746
344.47	0.756
344.83	0.761
345.19	0.832
345.54	0.841
345.90	0.878
346.26	0.874
346.61	0.933
346.97	0.899
347.32	0.998
347.68	1.037
348.04	0.927
348.39	0.850
348.75	0.894
349.11	0.882
349.46	0.867
349.82	0.870
350.18	0.852
350.53	0.812
350.89	0.792
351.24	0.690
351.60	0.704
351.96	0.769
352.31	0.817
352.67	0.848
353.02	0.836
353.38	0.889
353.74	0.933
354.09	0.972
354.45	1.027
354.80	1.081
355.16	1.225
355.52	1.236
355.87	1.148
356.23	1.115
356.58	1.092
356.94	1.165
357.29	1.143
357.65	1.131
358.00	1.118
358.36	1.090
358.72	1.118
359.07	1.087
359.43	1.161
359.78	1.240
360.14	1.276
360.49	1.310
360.85	1.298
361.20	1.315
361.56	1.350
361.91	1.352
362.27	1.401
362.62	1.420
362.98	1.432
363.33	1.394
363.69	1.439
364.04	1.485
364.40	1.502
364.75	1.484
365.11	1.476
365.46	1.415
365.82	1.488
366.17	1.461
366.53	1.415
366.88	1.423
367.24	1.458
367.59	1.402
367.95	1.389
368.30	1.348
368.66	1.402
369.01	1.416
369.37	1.503
369.72	1.493
370.08	1.522
370.43	1.585
370.78	1.606
371.14	1.557
371.49	1.615
371.85	1.614
372.20	1.676
372.56	1.653
372.91	1.679
373.26	1.673
373.62	1.635
373.97	1.664
374.33	1.648
374.68	1.652
375.03	1.721
375.39	1.661
375.74	1.672
376.10	1.655
376.45	1.683
376.80	1.696
377.16	1.663
377.51	1.724
377.87	1.756
378.22	1.742
378.57	1.724
378.93	1.716
379.28	1.833
379.63	1.888
379.99	1.943
380.34	1.957
380.70	1.989
381.05	2.057
381.40	2.062
381.76	2.066
382.11	2.133
382.46	2.194
382.82	2.214
383.17	2.176
383.52	2.168
383.88	2.159
384.23	2.170
384.58	2.158
384.94	2.151
385.29	2.185
385.64	2.203
385.99	2.215
386.35	2.210
386.70	2.243
387.05	2.236
387.41	2.240
387.76	2.254
388.11	2.274
388.47	2.280
388.82	2.320
389.17	2.304
389.52	2.301
389.88	2.301
390.23	2.301
390.58	2.336
390.93	2.365
391.29	2.382
391.64	2.407
391.99	2.427
392.34	2.479
392.70	2.480
393.05	2.481
393.40	2.501
393.75	2.501
394.11	2.512
394.46	2.472
394.81	2.487
395.16	2.483
395.52	2.472
395.87	2.480
396.22	2.468
396.57	2.410
396.92	2.402
397.28	2.360
397.63	2.333
397.98	2.321
398.33	2.316
398.68	2.292
399.04	2.270
399.39	2.247
399.74	2.207
400.09	2.190
400.44	2.229
400.80	2.243
401.15	2.250
401.50	2.252
401.85	2.257
402.20	2.257
402.55	2.277
402.90	2.262
403.26	2.270
403.61	2.264
403.96	2.254
404.31	2.231
404.66	2.207
405.01	2.200
405.36	2.207
405.72	2.191
406.07	2.182
406.42	2.138
406.77	2.164
407.12	2.162
407.47	2.182
407.82	2.177
408.17	2.171
408.53	2.165
408.88	2.147
409.23	2.128
409.58	2.108
409.93	2.120
410.28	2.137
410.63	2.117
410.98	2.083
411.33	2.059
411.68	2.063
412.03	2.100
412.38	2.102
412.73	2.107
413.09	2.122
413.44	2.161
413.79	2.166
414.14	2.177
414.49	2.201
414.84	2.223
415.19	2.249
415.54	2.276
415.89	2.270
416.24	2.305
416.59	2.317
416.94	2.339
417.29	2.362
417.64	2.354
417.99	2.363
418.34	2.379
418.69	2.416
419.04	2.408
419.39	2.404
419.74	2.424
420.09	2.426
420.44	2.438
420.79	2.444
421.14	2.439
421.49	2.469
421.84	2.475
422.19	2.484
422.54	2.463
422.89	2.471
423.24	2.471
423.59	2.462
423.94	2.439
424.29	2.435
424.64	2.420
424.99	2.407
425.34	2.365
425.68	2.336
426.03	2.282
426.38	2.282
426.73	2.277
427.08	2.265
427.43	2.258
427.78	2.289
428.13	2.288
428.48	2.286
428.83	2.284
429.18	2.294
429.53	2.303
429.87	2.311
430.22	2.291
430.57	2.300
430.92	2.296
431.27	2.292
431.62	2.282
431.97	2.290
432.32	2.290
432.67	2.284
433.01	2.282
433.36	2.289
433.71	2.285
434.06	2.293
434.41	2.290
434.76	2.312
435.11	2.323
435.45	2.343
435.80	2.335
436.15	2.356
436.50	2.375
436.85	2.396
437.20	2.398
437.54	2.416
437.89	2.430
438.24	2.450
438.59	2.449
438.94	2.435
439.29	2.405
439.63	2.424
439.98	2.419
440.33	2.409
440.68	2.408
441.03	2.416
441.37	2.429
441.72	2.440
442.07	2.420
442.42	2.433
442.76	2.459
443.11	2.479
443.46	2.480
443.81	2.486
444.16	2.505
444.50	2.497
444.85	2.487
445.20	2.478
445.55	2.461
445.89	2.473
446.24	2.455
446.59	2.429
446.94	2.420
447.28	2.396
447.63	2.378
447.98	2.351
448.32	2.347
448.67	2.334
449.02	2.308
449.37	2.300
449.71	2.284
450.06	2.268
450.41	2.258
450.75	2.258
451.10	2.252
451.45	2.228
451.79	2.214
452.14	2.215
452.49	2.205
452.84	2.208
453.18	2.188
453.53	2.171
453.88	2.166
454.22	2.199
454.57	2.198
454.92	2.209
455.26	2.230
455.61	2.263
455.95	2.289
456.30	2.317
456.65	2.346
456.99	2.386
457.34	2.417
457.69	2.435
458.03	2.432
458.38	2.453
458.73	2.461
459.07	2.461
459.42	2.443
459.76	2.408
460.11	2.375
460.46	2.353
460.80	2.312
461.15	2.281
461.49	2.263
461.84	2.247
462.19	2.209
462.53	2.198
462.88	2.198
463.22	2.190
463.57	2.197
463.91	2.218
464.26	2.237
464.61	2.256
464.95	2.243
465.30	2.248
465.64	2.247
465.99	2.278
466.33	2.288
466.68	2.285
467.02	2.296
467.37	2.305
467.71	2.304
468.06	2.294
468.41	2.277
468.75	2.288
469.10	2.286
469.44	2.280
469.79	2.249
470.13	2.214
470.48	2.196
470.82	2.196
471.17	2.187
471.51	2.165
471.86	2.149
472.20	2.161
472.55	2.168
472.89	2.173
473.23	2.160
473.58	2.165
473.92	2.181
474.27	2.181
474.61	2.164
474.96	2.179
475.30	2.196
475.65	2.189
475.99	2.190
476.34	2.190
476.68	2.179
477.02	2.210
477.37	2.216
477.71	2.244
478.06	2.293
478.40	2.375
478.75	2.448
479.09	2.536
479.43	2.645
479.78	2.751
480.12	2.858
480.47	2.965
480.81	3.051
481.15	3.146
481.50	3.239
481.84	3.327
482.19	3.411
482.53	3.479
482.87	3.526
483.22	3.525
483.56	3.491
483.90	3.426
484.25	3.352
484.59	3.276
484.94	3.199
485.28	3.126
485.62	3.047
485.97	2.958
486.31	2.884
486.65	2.830
487.00	2.798
487.34	2.789
487.68	2.798
488.03	2.812
488.37	2.827
488.71	2.826
489.06	2.814
489.40	2.809
489.74	2.796
490.09	2.777
490.43	2.751
490.77	2.733
491.11	2.698
491.46	2.665
491.80	2.628
492.14	2.583
492.49	2.560
492.83	2.530
493.17	2.489
493.51	2.446
493.86	2.414
494.20	2.388
494.54	2.373
494.88	2.402
495.23	2.418
495.57	2.429
495.91	2.459
496.25	2.471
496.60	2.485
496.94	2.484
497.28	2.486
497.62	2.499
497.97	2.515
498.31	2.526
498.65	2.513
498.99	2.505
499.33	2.529
499.68	2.536
500.02	2.551
500.36	2.543
500.70	2.563
501.04	2.583
501.39	2.577
501.73	2.591
502.07	2.610
502.41	2.635
502.75	2.674
503.09	2.683
503.44	2.704
503.78	2.711
504.12	2.735
504.46	2.761
504.80	2.802
505.14	2.852
505.49	2.872
505.83	2.901
506.17	2.920
506.51	2.941
506.85	2.982
507.19	3.012
507.53	3.035
507.87	3.075
508.22	3.097
508.56	3.108
508.90	3.122
509.24	3.160
509.58	3.176
509.92	3.204
510.26	3.224
510.60	3.240
510.94	3.263
511.28	3.279
511.63	3.294
511.97	3.319
512.31	3.356
512.65	3.381
512.99	3.413
513.33	3.472
513.67	3.520
514.01	3.589
514.35	3.638
514.69	3.691
515.03	3.756
515.37	3.818
515.71	3.878
516.05	3.927
516.39	3.965
516.73	4.000
517.07	4.011
517.41	4.031
517.75	4.038
518.09	4.052
518.43	4.058
518.77	4.063
519.11	4.044
519.45	4.032
519.79	4.039
520.13	4.043
520.47	4.055
520.81	4.085
521.15	4.116
521.49	4.148
521.83	4.194
522.17	4.250
522.51	4.309
522.85	4.406
523.19	4.528
523.53	4.630
523.87	4.769
524.21	4.891
524.55	5.012
524.89	5.123
525.23	5.224
525.57	5.301
525.91	5.371
526.25	5.437
526.58	5.504
526.92	5.553
527.26	5.584
527.60	5.585
527.94	5.589
528.28	5.580
528.62	5.564
528.96	5.552
529.30	5.547
529.64	5.539
529.97	5.528
530.31	5.495
530.65	5.463
530.99	5.461
531.33	5.478
531.67	5.484
532.01	5.491
532.35	5.496
532.68	5.488
533.02	5.482
533.36	5.474
533.70	5.475
534.04	5.467
534.38	5.458
534.71	5.444
535.05	5.429
535.39	5.430
535.73	5.427
536.07	5.450
536.41	5.482
536.74	5.517
537.08	5.549
537.42	5.602
537.76	5.655
538.10	5.719
538.43	5.782
538.77	5.834
539.11	5.879
539.45	5.930
539.79	5.974
540.12	6.000
540.46	6.013
540.80	6.021
541.14	6.012
541.47	5.998
541.81	5.975
542.15	5.951
542.49	5.921
542.82	5.880
543.16	5.842
543.50	5.796
543.84	5.760
544.17	5.714
544.51	5.703
544.85	5.672
545.18	5.674
545.52	5.663
545.86	5.629
546.20	5.610
546.53	5.601
546.87	5.570
547.21	5.534
547.54	5.509
547.88	5.533
548.22	5.503
548.55	5.502
548.89	5.478
549.23	5.475
549.56	5.491
549.90	5.518
550.24	5.517
550.57	5.518
550.91	5.524
551.25	5.560
551.58	5.555
551.92	5.561
552.26	5.561
552.59	5.580
552.93	5.580
553.27	5.583
553.60	5.558
553.94	5.541
554.27	5.550
554.61	5.570
554.95	5.556
555.28	5.557
555.62	5.547
555.95	5.564
556.29	5.572
556.63	5.569
556.96	5.566
557.30	5.570
557.63	5.595
557.97	5.616
558.31	5.590
558.64	5.584
558.98	5.597
559.31	5.647
559.65	5.646
559.98	5.653
560.32	5.667
560.65	5.698
560.99	5.736
561.33	5.763
561.66	5.790
562.00	5.843
562.33	5.888
562.67	5.936
563.00	5.962
563.34	6.001
563.67	6.039
564.01	6.071
564.34	6.101
564.68	6.120
565.01	6.152
565.35	6.183
565.68	6.210
566.02	6.222
566.35	6.229
566.69	6.245
567.02	6.276
567.36	6.303
567.69	6.349
568.03	6.384
568.36	6.419
568.69	6.447
569.03	6.475
569.36	6.496
569.70	6.543
570.03	6.590
570.37	6.622
570.70	6.675
571.04	6.705
571.37	6.719
571.70	6.730
572.04	6.767
572.37	6.802
572.71	6.826
573.04	6.862
573.37	6.899
573.71	6.929
574.04	6.969
574.38	6.980
574.71	7.022
575.04	7.055
575.38	7.094
575.71	7.119
576.05	7.170
576.38	7.225
576.71	7.259
577.05	7.274
577.38	7.297
577.71	7.307
578.05	7.337
578.38	7.358
578.71	7.406
579.05	7.433
579.38	7.467
579.71	7.493
580.05	7.491
580.38	7.533
580.71	7.574
581.05	7.626
581.38	7.690
581.71	7.754
582.05	7.840
582.38	7.907
582.71	7.958
583.04	8.046
583.38	8.109
583.71	8.226
584.04	8.328
584.38	8.409
584.71	8.505
585.04	8.599
585.37	8.694
585.71	8.767
586.04	8.839
586.37	8.967
586.70	9.068
587.04	9.163
587.37	9.228
587.70	9.304
588.03	9.401
588.37	9.484
588.70	9.539
589.03	9.585
589.36	9.646
589.69	9.687
590.03	9.721
590.36	9.744
590.69	9.761
591.02	9.796
591.35	9.828
591.69	9.873
592.02	9.903
592.35	9.970
592.68	10.035
593.01	10.056
593.35	10.134
593.68	10.196
594.01	10.244
594.34	10.271
594.67	10.312
595.00	10.345
595.34	10.357
595.67	10.345
596.00	10.366
596.33	10.363
596.66	10.372
596.99	10.348
597.32	10.331
597.65	10.304
597.99	10.311
598.32	10.283
598.65	10.281
598.98	10.270
599.31	10.275
599.64	10.307
599.97	10.301
600.30	10.341
600.63	10.369
600.96	10.396
601.30	10.428
601.63	10.461
601.96	10.486
602.29	10.470
602.62	10.482
602.95	10.504
603.28	10.486
603.61	10.482
603.94	10.452
604.27	10.454
604.60	10.437
604.93	10.448
605.26	10.435
605.59	10.434
605.92	10.457
606.25	10.461
606.58	10.473
606.91	10.425
607.24	10.435
607.57	10.430
607.90	10.421
608.23	10.417
608.56	10.385
608.89	10.387
609.22	10.363
609.55	10.330
609.88	10.301
610.21	10.268
610.54	10.254
610.87	10.214
611.20	10.212
611.53	10.170
611.86	10.125
612.19	10.069
612.52	10.001
612.85	9.999
613.18	10.001
613.51	9.963
613.84	9.899
614.17	9.919
614.49	9.945
614.82	9.893
615.15	9.892
615.48	9.924
615.81	9.978
616.14	10.026
616.47	10.019
616.80	9.986
617.13	9.990
617.46	10.022
617.78	10.002
618.11	9.983
618.44	10.031
618.77	10.017
619.10	9.972
619.43	9.938
619.76	9.895
620.09	9.907
620.41	9.922
620.74	9.918
621.07	9.957
621.40	9.979
621.73	10.004
622.06	10.005
622.38	10.044
622.71	10.083
623.04	10.123
623.37	10.158
623.70	10.183
624.02	10.218
624.35	10.292
624.68	10.289
625.01	10.306
625.34	10.324
625.66	10.350
625.99	10.361
626.32	10.389
626.65	10.360
626.98	10.331
627.30	10.300
627.63	10.273
627.96	10.224
628.29	10.204
628.61	10.199
628.94	10.146
629.27	10.103
629.60	10.061
629.92	10.035
630.25	10.037
630.58	10.052
630.91	10.084
631.23	10.089
631.56	10.081
631.89	10.099
632.21	10.094
632.54	10.113
632.87	10.107
633.19	10.131
633.52	10.123
633.85	10.155
634.18	10.147
634.50	10.105
634.83	10.078
635.16	10.050
635.48	10.007
635.81	9.953
636.14	9.928
636.46	9.925
636.79	9.868
637.11	9.828
637.44	9.744
637.77	9.711
638.09	9.702
638.42	9.686
638.75	9.693
639.07	9.698
639.40	9.735
639.73	9.710
640.05	9.699
640.38	9.750
640.70	9.762
641.03	9.795
641.36	9.816
641.68	9.806
642.01	9.828
642.33	9.807
642.66	9.829
642.98	9.796
643.31	9.832
643.64	9.830
643.96	9.856
644.29	9.848
644.61	9.897
644.94	9.897
645.26	9.962
645.59	10.005
645.91	10.092
646.24	10.112
646.56	10.140
646.89	10.147
647.22	10.177
647.54	10.154
647.87	10.232
648.19	10.158
648.52	10.187
648.84	10.199
649.17	10.160
649.49	10.116
649.82	10.121
650.14	10.153
650.47	10.160
650.79	10.171
651.11	10.195
651.44	10.179
651.76	10.221
652.09	10.258
652.41	10.249
652.74	10.300
653.06	10.375
