OOIBase32 Version 2.0.0.6 Data File
++++++++++++++++++++++++++++++++++++
Date: 01-23-2012, 23:07:41
User: Valued Ocean Optics Customer
Spectrometer Serial Number: USB2E2917
Spectrometer Channel: Master
Integration Time (msec): 5
Spectra Averaged: 10
Boxcar Smoothing: 5
Correct for Electrical Dark: Enabled
Time Normalized: Disabled
Dual-beam Reference: Disabled
Reference Channel: Master
Temperature: Not acquired
Spectrometer Type: S2000
ADC Type: USB2000
Number of Pixels in File: 2048
Graph Title: 
>>>>>Begin Spectral Data<<<<<
180.30	0.000
180.67	0.000
181.03	-36.129
181.40	104.796
181.77	-2570.489
182.14	41.209
182.51	-75.502
182.88	40.163
183.25	9.843
183.62	35.844
183.99	399.271
184.36	-23.986
184.73	296.518
185.10	54.316
185.46	-233.371
185.83	-148.377
186.20	396.000
186.57	346.960
186.94	81.898
187.31	50.063
187.68	75.992
188.05	-10.338
188.42	12.636
188.78	82.877
189.15	417.000
189.52	-80.160
189.89	0.787
190.26	21.731
190.63	17.217
191.00	36.764
191.37	26.579
191.73	38.538
192.10	30.653
192.47	38.810
192.84	33.582
193.21	38.674
193.58	38.237
193.94	30.158
194.31	10.097
194.68	0.608
195.05	-19.708
195.42	-19.220
195.79	-29.310
196.15	-44.167
196.52	-48.945
196.89	-42.470
197.26	-61.334
197.63	-44.269
198.00	-18.899
198.36	-1.239
198.73	8.833
199.10	16.438
199.47	16.791
199.84	-3.419
200.20	-4.474
200.57	-7.193
200.94	-20.326
201.31	-0.983
201.68	-17.586
202.04	-25.943
202.41	-32.491
202.78	-39.360
203.15	-50.617
203.51	-43.590
203.88	-38.594
204.25	-29.058
204.62	-57.815
204.98	-60.392
205.35	-65.227
205.72	-57.865
206.09	-60.015
206.46	-95.908
206.82	-69.527
207.19	-63.332
207.56	-117.946
207.92	-87.458
208.29	-96.637
208.66	-36.142
209.03	-30.896
209.39	-23.182
209.76	-35.083
210.13	-63.006
210.50	-54.067
210.86	-50.310
211.23	-66.613
211.60	-37.394
211.96	-45.179
212.33	-37.701
212.70	-67.455
213.07	-79.144
213.43	-110.976
213.80	-83.805
214.17	-48.988
214.53	-32.460
214.90	-22.489
215.27	-7.964
215.63	-9.468
216.00	-4.534
216.37	-11.247
216.74	-10.082
217.10	1.299
217.47	-1.983
217.84	3.265
218.20	3.861
218.57	4.316
218.94	-4.013
219.30	-6.276
219.67	-10.186
220.04	-8.263
220.40	-4.895
220.77	-6.158
221.13	-4.787
221.50	3.256
221.87	-0.756
222.23	0.856
222.60	-1.934
222.97	1.207
223.33	-0.940
223.70	-0.899
224.07	-2.870
224.43	-5.652
224.80	-2.767
225.16	-5.235
225.53	-5.557
225.90	-5.450
226.26	-5.984
226.63	-2.414
226.99	-1.251
227.36	-0.139
227.73	1.917
228.09	2.015
228.46	5.098
228.82	5.702
229.19	7.456
229.56	6.565
229.92	7.452
230.29	7.395
230.65	5.331
231.02	3.094
231.38	0.186
231.75	-3.316
232.12	-4.263
232.48	-8.125
232.85	-9.283
233.21	-11.169
233.58	-11.584
233.94	-11.145
234.31	-10.499
234.68	-8.340
235.04	-6.540
235.41	-3.925
235.77	-2.576
236.14	-2.225
236.50	-0.906
236.87	-0.246
237.23	0.314
237.60	0.026
237.96	-0.874
238.33	-2.045
238.69	-3.370
239.06	-3.655
239.42	-3.739
239.79	-4.228
240.15	-3.531
240.52	-3.064
240.88	-2.471
241.25	-2.208
241.61	-1.519
241.98	-1.142
242.34	-0.866
242.71	-0.220
243.07	-0.002
243.44	-0.213
243.80	-0.133
244.17	-0.221
244.53	-0.666
244.90	-0.890
245.26	-0.910
245.63	-0.964
245.99	-0.841
246.36	-0.644
246.72	-0.278
247.09	-0.654
247.45	-0.295
247.81	0.055
248.18	-0.002
248.54	0.220
248.91	0.054
249.27	0.165
249.64	0.529
250.00	0.411
250.36	0.174
250.73	-0.581
251.09	-0.072
251.46	-0.416
251.82	-0.296
252.19	-0.263
252.55	-0.181
252.91	0.037
253.28	-0.081
253.64	-1.226
254.01	-1.368
254.37	-1.019
254.73	-0.347
255.10	-0.096
255.46	0.398
255.83	0.352
256.19	0.479
256.55	0.260
256.92	0.268
257.28	0.182
257.65	0.559
258.01	0.578
258.37	0.745
258.74	0.649
259.10	0.627
259.46	0.493
259.83	0.448
260.19	0.419
260.55	0.718
260.92	0.744
261.28	0.775
261.64	0.777
262.01	1.078
262.37	0.832
262.73	0.615
263.10	0.410
263.46	0.241
263.82	0.217
264.19	0.174
264.55	-0.150
264.91	-0.140
265.28	-0.054
265.64	0.102
266.00	-0.269
266.37	-0.144
266.73	-0.176
267.09	-0.167
267.46	-0.374
267.82	-0.699
268.18	-0.639
268.54	-0.311
268.91	-0.337
269.27	-0.473
269.63	-0.602
270.00	-0.490
270.36	-0.559
270.72	-0.280
271.08	-0.294
271.45	-0.116
271.81	-0.018
272.17	0.010
272.53	-0.158
272.90	-0.154
273.26	0.005
273.62	-0.171
273.98	-0.181
274.35	-0.266
274.71	-0.313
275.07	-0.322
275.43	-0.330
275.80	-0.144
276.16	-0.330
276.52	-0.399
276.88	-0.455
277.25	-0.700
277.61	-0.836
277.97	-0.940
278.33	-0.883
278.69	-0.940
279.06	-0.811
279.42	-0.651
279.78	-0.643
280.14	-0.444
280.50	-0.394
280.87	-0.304
281.23	-0.097
281.59	0.274
281.95	0.462
282.31	0.667
282.68	0.456
283.04	0.273
283.40	0.211
283.76	0.304
284.12	0.371
284.48	0.413
284.85	0.408
285.21	0.394
285.57	0.201
285.93	0.140
286.29	-0.113
286.65	0.149
287.02	0.532
287.38	0.600
287.74	0.372
288.10	0.303
288.46	0.336
288.82	0.141
289.18	0.013
289.54	0.198
289.91	0.187
290.27	0.378
290.63	0.425
290.99	0.433
291.35	0.403
291.71	0.548
292.07	0.454
292.43	0.424
292.79	0.520
293.16	0.573
293.52	0.587
293.88	0.733
294.24	0.627
294.60	0.542
294.96	0.302
295.32	0.343
295.68	0.378
296.04	0.261
296.40	0.285
296.76	0.340
297.12	0.273
297.49	0.110
297.85	-0.064
298.21	-0.008
298.57	-0.175
298.93	-0.009
299.29	-0.180
299.65	-0.137
300.01	-0.069
300.37	0.007
300.73	0.141
301.09	0.248
301.45	0.402
301.81	0.614
302.17	0.489
302.53	0.419
302.89	0.297
303.25	0.339
303.61	0.127
303.97	0.200
304.33	0.157
304.69	0.121
305.05	0.147
305.41	0.096
305.77	0.018
306.13	-0.008
306.49	0.017
306.85	0.095
307.21	0.076
307.57	0.238
307.93	0.253
308.29	0.383
308.65	0.348
309.01	0.379
309.37	0.250
309.73	0.159
310.09	0.320
310.45	0.454
310.81	0.392
311.17	0.394
311.53	0.326
311.89	0.370
312.25	0.130
312.61	-0.007
312.96	-0.041
313.32	0.208
313.68	0.265
314.04	0.154
314.40	0.107
314.76	0.038
315.12	0.048
315.48	0.123
315.84	0.080
316.20	0.161
316.56	0.183
316.92	0.128
317.27	-0.048
317.63	-0.001
317.99	-0.042
318.35	-0.007
318.71	0.053
319.07	0.125
319.43	0.170
319.79	0.300
320.15	0.185
320.50	0.216
320.86	0.253
321.22	0.311
321.58	0.212
321.94	0.258
322.30	0.190
322.66	0.179
323.01	0.074
323.37	-0.082
323.73	-0.144
324.09	-0.168
324.45	-0.046
324.81	-0.128
325.17	-0.183
325.52	-0.201
325.88	-0.257
326.24	-0.128
326.60	-0.120
326.96	0.015
327.31	0.018
327.67	-0.102
328.03	-0.051
328.39	-0.161
328.75	0.002
329.11	0.117
329.46	0.151
329.82	0.243
330.18	0.097
330.54	0.130
330.90	0.070
331.25	0.113
331.61	0.181
331.97	0.243
332.33	0.364
332.68	0.368
333.04	0.361
333.40	0.376
333.76	0.317
334.11	0.365
334.47	0.374
334.83	0.340
335.19	0.341
335.54	0.336
335.90	0.291
336.26	0.301
336.62	0.233
336.97	0.147
337.33	0.098
337.69	0.137
338.05	0.125
338.40	0.067
338.76	0.168
339.12	0.320
339.48	0.337
339.83	0.489
340.19	0.465
340.55	0.605
340.90	0.605
341.26	0.664
341.62	0.668
341.97	0.672
342.33	0.749
342.69	0.751
343.04	0.678
343.40	0.734
343.76	0.692
344.12	0.786
344.47	0.801
344.83	0.962
345.19	1.046
345.54	1.127
345.90	1.273
346.26	1.370
346.61	1.401
346.97	1.498
347.32	1.545
347.68	1.523
348.04	1.451
348.39	1.403
348.75	1.435
349.11	1.445
349.46	1.518
349.82	1.568
350.18	1.556
350.53	1.703
350.89	1.769
351.24	1.827
351.60	2.013
351.96	2.211
352.31	2.274
352.67	2.338
353.02	2.378
353.38	2.367
353.74	2.364
354.09	2.403
354.45	2.366
354.80	2.370
355.16	2.421
355.52	2.441
355.87	2.403
356.23	2.488
356.58	2.506
356.94	2.555
357.29	2.653
357.65	2.717
358.00	2.798
358.36	2.844
358.72	2.887
359.07	2.919
359.43	2.906
359.78	2.923
360.14	2.891
360.49	2.885
360.85	2.909
361.20	2.913
361.56	2.857
361.91	2.864
362.27	2.894
362.62	2.931
362.98	2.958
363.33	2.971
363.69	3.021
364.04	3.095
364.40	3.147
364.75	3.180
365.11	3.198
365.46	3.241
365.82	3.274
366.17	3.282
366.53	3.277
366.88	3.303
367.24	3.388
367.59	3.416
367.95	3.445
368.30	3.438
368.66	3.418
369.01	3.407
369.37	3.473
369.72	3.519
370.08	3.543
370.43	3.568
370.78	3.550
371.14	3.494
371.49	3.468
371.85	3.445
372.20	3.498
372.56	3.561
372.91	3.563
373.26	3.557
373.62	3.473
373.97	3.489
374.33	3.460
374.68	3.486
375.03	3.536
375.39	3.562
375.74	3.574
376.10	3.538
376.45	3.542
376.80	3.619
377.16	3.606
377.51	3.683
377.87	3.674
378.22	3.647
378.57	3.643
378.93	3.664
379.28	3.679
379.63	3.684
379.99	3.724
380.34	3.733
380.70	3.688
381.05	3.718
381.40	3.661
381.76	3.704
382.11	3.759
382.46	3.786
382.82	3.784
383.17	3.754
383.52	3.739
383.88	3.735
384.23	3.701
384.58	3.691
384.94	3.644
385.29	3.718
385.64	3.711
385.99	3.733
386.35	3.733
386.70	3.744
387.05	3.736
387.41	3.786
387.76	3.768
388.11	3.792
388.47	3.804
388.82	3.852
389.17	3.810
389.52	3.801
389.88	3.802
390.23	3.786
390.58	3.793
390.93	3.849
391.29	3.832
391.64	3.872
391.99	3.922
392.34	3.937
392.70	3.934
393.05	3.935
393.40	3.920
393.75	3.921
394.11	3.943
394.46	3.931
394.81	3.905
395.16	3.865
395.52	3.812
395.87	3.739
396.22	3.739
396.57	3.711
396.92	3.674
397.28	3.647
397.63	3.621
397.98	3.548
398.33	3.504
398.68	3.450
399.04	3.461
399.39	3.459
399.74	3.457
400.09	3.417
400.44	3.421
400.80	3.428
401.15	3.407
401.50	3.409
401.85	3.438
402.20	3.408
402.55	3.427
402.90	3.386
403.26	3.358
403.61	3.313
403.96	3.280
404.31	3.235
404.66	3.219
405.01	3.210
405.36	3.181
405.72	3.131
406.07	3.131
406.42	3.089
406.77	3.083
407.12	3.082
407.47	3.103
407.82	3.101
408.17	3.095
408.53	3.093
408.88	3.064
409.23	3.025
409.58	3.000
409.93	2.991
410.28	3.010
410.63	2.987
410.98	2.973
411.33	2.952
411.68	2.972
412.03	2.987
412.38	2.958
412.73	2.993
413.09	3.003
413.44	3.035
413.79	3.031
414.14	3.045
414.49	3.070
414.84	3.081
415.19	3.078
415.54	3.090
415.89	3.093
416.24	3.140
416.59	3.158
416.94	3.186
417.29	3.201
417.64	3.199
417.99	3.197
418.34	3.208
418.69	3.222
419.04	3.233
419.39	3.221
419.74	3.227
420.09	3.225
420.44	3.210
420.79	3.200
421.14	3.197
421.49	3.213
421.84	3.209
422.19	3.201
422.54	3.187
422.89	3.182
423.24	3.184
423.59	3.162
423.94	3.125
424.29	3.121
424.64	3.110
424.99	3.098
425.34	3.064
425.68	3.046
426.03	3.025
426.38	3.009
426.73	3.001
427.08	2.958
427.43	2.979
427.78	3.002
428.13	2.981
428.48	2.951
428.83	2.936
429.18	2.934
429.53	2.932
429.87	2.912
430.22	2.899
430.57	2.882
430.92	2.897
431.27	2.881
431.62	2.840
431.97	2.832
432.32	2.828
432.67	2.818
433.01	2.810
433.36	2.795
433.71	2.806
434.06	2.794
434.41	2.798
434.76	2.812
435.11	2.808
435.45	2.833
435.80	2.866
436.15	2.892
436.50	2.894
436.85	2.897
437.20	2.908
437.54	2.916
437.89	2.934
438.24	2.933
438.59	2.914
438.94	2.913
439.29	2.903
439.63	2.887
439.98	2.888
440.33	2.897
440.68	2.932
441.03	2.949
441.37	2.978
441.72	2.991
442.07	3.031
442.42	3.062
442.76	3.103
443.11	3.128
443.46	3.177
443.81	3.191
444.16	3.226
444.50	3.240
444.85	3.261
445.20	3.273
445.55	3.291
445.89	3.292
446.24	3.311
446.59	3.311
446.94	3.321
447.28	3.319
447.63	3.332
447.98	3.337
448.32	3.338
448.67	3.341
449.02	3.331
449.37	3.340
449.71	3.360
450.06	3.362
450.41	3.382
450.75	3.418
451.10	3.428
451.45	3.439
451.79	3.446
452.14	3.458
452.49	3.487
452.84	3.520
453.18	3.524
453.53	3.523
453.88	3.547
454.22	3.557
454.57	3.572
454.92	3.595
455.26	3.633
455.61	3.676
455.95	3.713
456.30	3.720
456.65	3.739
456.99	3.769
457.34	3.788
457.69	3.787
458.03	3.798
458.38	3.812
458.73	3.801
459.07	3.781
459.42	3.740
459.76	3.702
460.11	3.674
460.46	3.640
460.80	3.617
461.15	3.598
461.49	3.576
461.84	3.555
462.19	3.511
462.53	3.504
462.88	3.503
463.22	3.511
463.57	3.517
463.91	3.520
464.26	3.530
464.61	3.529
464.95	3.508
465.30	3.530
465.64	3.538
465.99	3.553
466.33	3.549
466.68	3.546
467.02	3.546
467.37	3.550
467.71	3.555
468.06	3.542
468.41	3.524
468.75	3.532
469.10	3.517
469.44	3.487
469.79	3.453
470.13	3.424
470.48	3.423
470.82	3.415
471.17	3.405
471.51	3.383
471.86	3.388
472.20	3.392
472.55	3.388
472.89	3.381
473.23	3.376
473.58	3.400
473.92	3.409
474.27	3.393
474.61	3.389
474.96	3.403
475.30	3.412
475.65	3.410
475.99	3.401
476.34	3.405
476.68	3.421
477.02	3.438
477.37	3.426
477.71	3.461
478.06	3.502
478.40	3.582
478.75	3.668
479.09	3.771
479.43	3.884
479.78	4.020
480.12	4.144
480.47	4.261
480.81	4.384
481.15	4.506
481.50	4.623
481.84	4.747
482.19	4.861
482.53	4.954
482.87	5.020
483.22	5.028
483.56	4.986
483.90	4.907
484.25	4.812
484.59	4.710
484.94	4.614
485.28	4.519
485.62	4.421
485.97	4.312
486.31	4.230
486.65	4.163
487.00	4.154
487.34	4.166
487.68	4.213
488.03	4.267
488.37	4.319
488.71	4.358
489.06	4.377
489.40	4.392
489.74	4.403
490.09	4.406
490.43	4.416
490.77	4.400
491.11	4.404
491.46	4.405
491.80	4.399
492.14	4.387
492.49	4.400
492.83	4.410
493.17	4.414
493.51	4.436
493.86	4.456
494.20	4.479
494.54	4.529
494.88	4.580
495.23	4.639
495.57	4.698
495.91	4.774
496.25	4.843
496.60	4.914
496.94	4.981
497.28	5.045
497.62	5.102
497.97	5.169
498.31	5.237
498.65	5.298
498.99	5.365
499.33	5.455
499.68	5.542
500.02	5.620
500.36	5.698
500.70	5.791
501.04	5.875
501.39	5.974
501.73	6.073
502.07	6.180
502.41	6.281
502.75	6.396
503.09	6.493
503.44	6.613
503.78	6.742
504.12	6.860
504.46	6.983
504.80	7.121
505.14	7.258
505.49	7.399
505.83	7.542
506.17	7.697
506.51	7.824
506.85	7.967
507.19	8.092
507.53	8.211
507.87	8.358
508.22	8.485
508.56	8.606
508.90	8.735
509.24	8.859
509.58	8.982
509.92	9.101
510.26	9.225
510.60	9.354
510.94	9.479
511.28	9.601
511.63	9.737
511.97	9.884
512.31	10.035
512.65	10.195
512.99	10.367
513.33	10.571
513.67	10.771
514.01	10.987
514.35	11.204
514.69	11.415
515.03	11.608
515.37	11.806
515.71	11.989
516.05	12.160
516.39	12.304
516.73	12.464
517.07	12.573
517.41	12.688
517.75	12.805
518.09	12.911
518.43	13.024
518.77	13.143
519.11	13.248
519.45	13.360
519.79	13.492
520.13	13.641
520.47	13.798
520.81	13.967
521.15	14.156
521.49	14.333
521.83	14.508
522.17	14.684
522.51	14.894
522.85	15.094
523.19	15.333
523.53	15.595
523.87	15.869
524.21	16.130
524.55	16.393
524.89	16.619
525.23	16.842
525.57	17.038
525.91	17.222
526.25	17.378
526.58	17.548
526.92	17.670
527.26	17.746
527.60	17.783
527.94	17.815
528.28	17.825
528.62	17.828
528.96	17.820
529.30	17.822
529.64	17.810
529.97	17.814
530.31	17.770
530.65	17.764
530.99	17.791
531.33	17.851
531.67	17.893
532.01	17.934
532.35	17.965
532.68	17.993
533.02	18.002
533.36	18.019
533.70	18.000
534.04	18.021
534.38	18.022
534.71	18.024
535.05	18.013
535.39	18.004
535.73	18.035
536.07	18.083
536.41	18.130
536.74	18.184
537.08	18.238
537.42	18.322
537.76	18.399
538.10	18.469
538.43	18.545
538.77	18.620
539.11	18.705
539.45	18.752
539.79	18.800
540.12	18.824
540.46	18.850
540.80	18.853
541.14	18.847
541.47	18.803
541.81	18.781
542.15	18.744
542.49	18.706
542.82	18.641
543.16	18.584
543.50	18.534
543.84	18.501
544.17	18.465
544.51	18.467
544.85	18.435
545.18	18.446
545.52	18.428
545.86	18.401
546.20	18.409
546.53	18.418
546.87	18.398
547.21	18.385
547.54	18.354
547.88	18.317
548.22	18.278
548.55	18.279
548.89	18.287
549.23	18.281
549.56	18.297
549.90	18.312
550.24	18.315
550.57	18.340
550.91	18.316
551.25	18.325
551.58	18.328
551.92	18.318
552.26	18.301
552.59	18.276
552.93	18.275
553.27	18.267
553.60	18.211
553.94	18.163
554.27	18.155
554.61	18.152
554.95	18.128
555.28	18.105
555.62	18.089
555.95	18.066
556.29	18.043
556.63	18.032
556.96	17.998
557.30	17.980
557.63	17.953
557.97	17.877
558.31	17.803
558.64	17.761
558.98	17.700
559.31	17.685
559.65	17.647
559.98	17.610
560.32	17.535
560.65	17.459
560.99	17.370
561.33	17.312
561.66	17.254
562.00	17.228
562.33	17.170
562.67	17.141
563.00	17.054
563.34	16.981
563.67	16.900
564.01	16.837
564.34	16.785
564.68	16.748
565.01	16.681
565.35	16.624
565.68	16.548
566.02	16.462
566.35	16.381
566.69	16.280
567.02	16.199
567.36	16.111
567.69	16.017
568.03	15.943
568.36	15.833
568.69	15.726
569.03	15.634
569.36	15.550
569.70	15.472
570.03	15.399
570.37	15.334
570.70	15.282
571.04	15.214
571.37	15.132
571.70	15.044
572.04	14.968
572.37	14.922
572.71	14.845
573.04	14.775
573.37	14.722
573.71	14.655
574.04	14.578
574.38	14.479
574.71	14.408
575.04	14.347
575.38	14.267
575.71	14.183
576.05	14.097
576.38	14.020
576.71	13.928
577.05	13.835
577.38	13.730
577.71	13.646
578.05	13.560
578.38	13.468
578.71	13.409
579.05	13.326
579.38	13.257
579.71	13.181
580.05	13.125
580.38	13.074
580.71	13.000
581.05	12.949
581.38	12.878
581.71	12.824
582.05	12.761
582.38	12.703
582.71	12.664
583.04	12.646
583.38	12.592
583.71	12.551
584.04	12.522
584.38	12.479
584.71	12.455
585.04	12.451
585.37	12.436
585.71	12.433
586.04	12.406
586.37	12.425
586.70	12.413
587.04	12.392
587.37	12.355
587.70	12.319
588.03	12.284
588.37	12.252
588.70	12.243
589.03	12.211
589.36	12.181
589.69	12.142
590.03	12.069
590.36	11.986
590.69	11.944
591.02	11.904
591.35	11.851
591.69	11.831
592.02	11.782
592.35	11.736
592.68	11.716
593.01	11.681
593.35	11.650
593.68	11.646
594.01	11.653
594.34	11.624
594.67	11.619
595.00	11.603
595.34	11.570
595.67	11.543
596.00	11.506
596.33	11.463
596.66	11.433
596.99	11.390
597.32	11.321
597.65	11.277
597.99	11.231
598.32	11.161
598.65	11.120
598.98	11.084
599.31	11.054
599.64	11.025
599.97	11.006
600.30	10.977
600.63	10.967
600.96	10.948
601.30	10.927
601.63	10.931
601.96	10.902
602.29	10.869
602.62	10.827
602.95	10.798
603.28	10.774
603.61	10.713
603.94	10.661
604.27	10.640
604.60	10.575
604.93	10.539
605.26	10.481
605.59	10.451
605.92	10.401
606.25	10.373
606.58	10.345
606.91	10.273
607.24	10.241
607.57	10.199
607.90	10.133
608.23	10.092
608.56	10.025
608.89	9.952
609.22	9.892
609.55	9.843
609.88	9.768
610.21	9.677
610.54	9.592
610.87	9.508
611.20	9.458
611.53	9.395
611.86	9.374
612.19	9.286
612.52	9.217
612.85	9.162
613.18	9.102
613.51	9.011
613.84	8.926
614.17	8.919
614.49	8.898
614.82	8.820
615.15	8.772
615.48	8.702
615.81	8.658
616.14	8.648
616.47	8.593
616.80	8.537
617.13	8.543
617.46	8.511
617.78	8.441
618.11	8.376
618.44	8.318
618.77	8.240
619.10	8.171
619.43	8.130
619.76	8.085
620.09	8.082
620.41	8.061
620.74	8.036
621.07	8.048
621.40	8.030
621.73	8.042
622.06	8.077
622.38	8.085
622.71	8.091
623.04	8.131
623.37	8.143
623.70	8.147
624.02	8.181
624.35	8.227
624.68	8.238
625.01	8.284
625.34	8.282
625.66	8.277
625.99	8.308
626.32	8.332
626.65	8.339
626.98	8.336
627.30	8.327
627.63	8.302
627.96	8.211
628.29	8.156
628.61	8.122
628.94	8.087
629.27	8.042
629.60	7.984
629.92	7.946
630.25	7.889
630.58	7.845
630.91	7.793
631.23	7.743
631.56	7.777
631.89	7.761
632.21	7.689
632.54	7.651
632.87	7.611
633.19	7.572
633.52	7.515
633.85	7.472
634.18	7.407
634.50	7.305
634.83	7.236
635.16	7.129
635.48	7.030
635.81	6.945
636.14	6.829
636.46	6.736
636.79	6.629
637.11	6.554
637.44	6.397
637.77	6.317
638.09	6.245
638.42	6.128
638.75	6.044
639.07	5.991
639.40	5.922
639.73	5.856
640.05	5.755
640.38	5.685
640.70	5.548
641.03	5.461
641.36	5.368
641.68	5.294
642.01	5.197
642.33	5.118
642.66	5.056
642.98	4.971
643.31	4.891
643.64	4.858
643.96	4.802
644.29	4.779
644.61	4.761
644.94	4.722
645.26	4.680
645.59	4.699
645.91	4.662
646.24	4.597
646.56	4.591
646.89	4.583
647.22	4.531
647.54	4.524
647.87	4.523
648.19	4.488
648.52	4.448
648.84	4.461
649.17	4.421
