OOIBase32 Version 2.0.0.6 Data File
++++++++++++++++++++++++++++++++++++
Date: 01-23-2012, 23:11:11
User: Valued Ocean Optics Customer
Spectrometer Serial Number: USB2E2917
Spectrometer Channel: Master
Integration Time (msec): 5
Spectra Averaged: 10
Boxcar Smoothing: 5
Correct for Electrical Dark: Enabled
Time Normalized: Disabled
Dual-beam Reference: Disabled
Reference Channel: Master
Temperature: Not acquired
Spectrometer Type: S2000
ADC Type: USB2000
Number of Pixels in File: 2048
Graph Title: 
>>>>>Begin Spectral Data<<<<<
180.30	0.000
180.67	0.000
181.03	58.888
181.40	88.580
181.77	-23868.654
182.14	142.448
182.51	-798.852
182.88	-276.011
183.25	42.887
183.62	38.994
183.99	302.420
184.36	-143.193
184.73	72.280
185.10	-12.899
185.46	-483.118
185.83	269.418
186.20	-1130.873
186.57	49.077
186.94	68.364
187.31	22.929
187.68	100.731
188.05	116.675
188.42	151.293
188.78	233.385
189.15	615.052
189.52	-165.354
189.89	-18.958
190.26	-15.065
190.63	16.296
191.00	16.985
191.37	32.968
191.73	48.060
192.10	45.072
192.47	46.360
192.84	45.207
193.21	44.806
193.58	38.816
193.94	29.997
194.31	39.500
194.68	32.084
195.05	35.470
195.42	45.697
195.79	31.719
196.15	42.704
196.52	45.224
196.89	52.488
197.26	45.317
197.63	46.004
198.00	49.941
198.36	23.335
198.73	-3.565
199.10	-24.039
199.47	-57.807
199.84	-68.816
200.20	-60.444
200.57	-42.932
200.94	-46.242
201.31	-32.562
201.68	-30.450
202.04	-35.533
202.41	-20.013
202.78	-20.363
203.15	-7.762
203.51	8.976
203.88	27.425
204.25	31.541
204.62	27.940
204.98	5.212
205.35	-13.137
205.72	-25.794
206.09	-16.059
206.46	-74.833
206.82	-60.817
207.19	-62.467
207.56	-104.142
207.92	-99.676
208.29	-125.302
208.66	-89.904
209.03	-62.278
209.39	-35.825
209.76	-15.103
210.13	-43.773
210.50	-29.332
210.86	-33.473
211.23	-41.632
211.60	-27.831
211.96	-38.065
212.33	-37.884
212.70	-45.984
213.07	-46.485
213.43	-85.995
213.80	-88.234
214.17	-48.291
214.53	-33.214
214.90	-18.532
215.27	-11.252
215.63	-11.205
216.00	-5.785
216.37	1.380
216.74	-1.964
217.10	0.745
217.47	-0.644
217.84	3.247
218.20	3.760
218.57	10.913
218.94	4.638
219.30	-1.855
219.67	-7.326
220.04	-4.062
220.40	-10.962
220.77	-11.379
221.13	-9.625
221.50	-5.381
221.87	-7.325
222.23	-10.038
222.60	-19.854
222.97	-13.548
223.33	-7.989
223.70	-6.719
224.07	-10.278
224.43	-9.065
224.80	-5.926
225.16	-8.297
225.53	-7.864
225.90	-9.041
226.26	-4.977
226.63	-3.033
226.99	-4.427
227.36	-4.057
227.73	-1.535
228.09	-0.462
228.46	0.612
228.82	1.708
229.19	2.083
229.56	1.791
229.92	3.533
230.29	3.029
230.65	2.463
231.02	2.813
231.38	0.261
231.75	-2.811
232.12	-3.780
232.48	-3.371
232.85	-5.804
233.21	-5.668
233.58	-6.676
233.94	-6.438
234.31	-7.553
234.68	-6.706
235.04	-5.994
235.41	-4.018
235.77	-1.483
236.14	-0.936
236.50	0.574
236.87	1.273
237.23	1.387
237.60	0.380
237.96	-0.615
238.33	-1.358
238.69	-1.880
239.06	-1.923
239.42	-1.861
239.79	-2.379
240.15	-2.135
240.52	-2.417
240.88	-2.355
241.25	-2.472
241.61	-1.443
241.98	-1.667
242.34	-1.217
242.71	-0.657
243.07	-0.330
243.44	-0.415
243.80	-0.529
244.17	-0.450
244.53	-0.653
244.90	-0.544
245.26	-0.398
245.63	-0.524
245.99	-0.352
246.36	-0.384
246.72	-0.209
247.09	-0.669
247.45	-0.391
247.81	0.071
248.18	0.296
248.54	0.608
248.91	0.143
249.27	0.516
249.64	0.974
250.00	1.384
250.36	1.448
250.73	0.783
251.09	1.449
251.46	1.525
251.82	1.409
252.19	0.882
252.55	0.679
252.91	1.358
253.28	0.726
253.64	0.458
254.01	0.043
254.37	0.231
254.73	0.980
255.10	1.208
255.46	1.345
255.83	1.160
256.19	1.050
256.55	0.808
256.92	0.804
257.28	0.771
257.65	0.908
258.01	1.067
258.37	1.005
258.74	0.827
259.10	0.694
259.46	0.523
259.83	0.425
260.19	0.506
260.55	0.544
260.92	0.586
261.28	0.772
261.64	0.845
262.01	0.827
262.37	0.694
262.73	0.643
263.10	0.603
263.46	0.690
263.82	0.863
264.19	1.093
264.55	1.027
264.91	0.842
265.28	0.669
265.64	0.424
266.00	0.238
266.37	0.422
266.73	0.552
267.09	0.561
267.46	0.318
267.82	0.036
268.18	-0.087
268.54	0.086
268.91	0.145
269.27	0.182
269.63	0.357
270.00	0.425
270.36	0.299
270.72	0.182
271.08	0.166
271.45	0.157
271.81	0.291
272.17	0.215
272.53	0.249
272.90	0.207
273.26	0.290
273.62	0.117
273.98	0.117
274.35	0.160
274.71	0.387
275.07	0.535
275.43	0.780
275.80	0.772
276.16	0.754
276.52	0.689
276.88	0.785
277.25	0.618
277.61	0.495
277.97	0.404
278.33	0.528
278.69	0.128
279.06	-0.007
279.42	-0.097
279.78	0.141
280.14	0.383
280.50	0.467
280.87	0.435
281.23	0.510
281.59	0.605
281.95	0.785
282.31	0.804
282.68	0.808
283.04	0.765
283.40	0.935
283.76	0.792
284.12	0.779
284.48	0.692
284.85	0.753
285.21	0.787
285.57	0.745
285.93	0.749
286.29	0.543
286.65	0.690
287.02	1.084
287.38	0.945
287.74	0.988
288.10	0.812
288.46	0.756
288.82	0.678
289.18	0.585
289.54	0.558
289.91	0.562
290.27	0.774
290.63	0.948
290.99	0.752
291.35	0.886
291.71	1.037
292.07	1.109
292.43	1.150
292.79	1.072
293.16	1.021
293.52	1.109
293.88	1.181
294.24	1.081
294.60	0.996
294.96	0.892
295.32	0.939
295.68	0.863
296.04	0.849
296.40	0.972
296.76	1.098
297.12	1.244
297.49	1.102
297.85	0.859
298.21	0.888
298.57	0.787
298.93	0.885
299.29	0.664
299.65	0.623
300.01	0.471
300.37	0.459
300.73	0.503
301.09	0.423
301.45	0.664
301.81	0.833
302.17	0.903
302.53	0.915
302.89	0.745
303.25	0.731
303.61	0.713
303.97	0.699
304.33	0.648
304.69	0.585
305.05	0.471
305.41	0.363
305.77	0.312
306.13	0.272
306.49	0.207
306.85	0.320
307.21	0.461
307.57	0.565
307.93	0.703
308.29	0.863
308.65	0.889
309.01	0.991
309.37	0.940
309.73	0.956
310.09	1.051
310.45	1.128
310.81	1.131
311.17	1.043
311.53	0.903
311.89	0.955
312.25	0.878
312.61	0.757
312.96	0.797
313.32	0.978
313.68	0.879
314.04	0.850
314.40	0.899
314.76	0.842
315.12	0.806
315.48	0.925
315.84	0.785
316.20	0.739
316.56	0.807
316.92	0.692
317.27	0.592
317.63	0.763
317.99	0.626
318.35	0.624
318.71	0.714
319.07	0.880
319.43	0.927
319.79	1.085
320.15	0.981
320.50	1.039
320.86	1.086
321.22	1.052
321.58	0.876
321.94	0.842
322.30	0.740
322.66	0.770
323.01	0.644
323.37	0.534
323.73	0.452
324.09	0.424
324.45	0.446
324.81	0.481
325.17	0.484
325.52	0.495
325.88	0.568
326.24	0.665
326.60	0.448
326.96	0.547
327.31	0.623
327.67	0.641
328.03	0.613
328.39	0.491
328.75	0.511
329.11	0.601
329.46	0.746
329.82	0.760
330.18	0.665
330.54	0.716
330.90	0.579
331.25	0.462
331.61	0.549
331.97	0.627
332.33	0.761
332.68	0.755
333.04	0.706
333.40	0.507
333.76	0.462
334.11	0.541
334.47	0.640
334.83	0.666
335.19	0.675
335.54	0.607
335.90	0.603
336.26	0.500
336.62	0.464
336.97	0.442
337.33	0.562
337.69	0.638
338.05	0.548
338.40	0.496
338.76	0.509
339.12	0.542
339.48	0.505
339.83	0.484
340.19	0.547
340.55	0.600
340.90	0.541
341.26	0.444
341.62	0.418
341.97	0.436
342.33	0.431
342.69	0.433
343.04	0.440
343.40	0.348
343.76	0.333
344.12	0.285
344.47	0.273
344.83	0.340
345.19	0.397
345.54	0.393
345.90	0.449
346.26	0.502
346.61	0.524
346.97	0.554
347.32	0.684
347.68	0.719
348.04	0.718
348.39	0.676
348.75	0.694
349.11	0.684
349.46	0.635
349.82	0.593
350.18	0.593
350.53	0.625
350.89	0.576
351.24	0.509
351.60	0.509
351.96	0.544
352.31	0.564
352.67	0.560
353.02	0.634
353.38	0.676
353.74	0.707
354.09	0.680
354.45	0.708
354.80	0.771
355.16	0.848
355.52	0.877
355.87	0.817
356.23	0.825
356.58	0.838
356.94	0.814
357.29	0.882
357.65	0.911
358.00	0.935
358.36	0.899
358.72	0.898
359.07	0.888
359.43	0.940
359.78	1.052
360.14	1.038
360.49	1.010
360.85	1.028
361.20	0.972
361.56	0.944
361.91	0.952
362.27	1.008
362.62	0.980
362.98	1.028
363.33	0.959
363.69	0.910
364.04	0.966
364.40	0.994
364.75	1.023
365.11	1.043
365.46	1.036
365.82	1.053
366.17	1.011
366.53	1.088
366.88	1.079
367.24	1.135
367.59	1.147
367.95	1.191
368.30	1.176
368.66	1.160
369.01	1.173
369.37	1.225
369.72	1.289
370.08	1.379
370.43	1.356
370.78	1.384
371.14	1.378
371.49	1.448
371.85	1.428
372.20	1.498
372.56	1.560
372.91	1.581
373.26	1.587
373.62	1.529
373.97	1.557
374.33	1.557
374.68	1.552
375.03	1.608
375.39	1.558
375.74	1.553
376.10	1.560
376.45	1.585
376.80	1.647
377.16	1.653
377.51	1.712
377.87	1.714
378.22	1.705
378.57	1.729
378.93	1.770
379.28	1.848
379.63	1.882
379.99	1.908
380.34	1.894
380.70	1.843
381.05	1.900
381.40	1.886
381.76	1.898
382.11	1.978
382.46	2.000
382.82	2.024
383.17	2.028
383.52	2.023
383.88	1.971
384.23	1.973
384.58	2.016
384.94	1.992
385.29	2.052
385.64	2.075
385.99	2.100
386.35	2.143
386.70	2.137
387.05	2.095
387.41	2.118
387.76	2.181
388.11	2.201
388.47	2.199
388.82	2.240
389.17	2.228
389.52	2.227
389.88	2.201
390.23	2.211
390.58	2.234
390.93	2.286
391.29	2.315
391.64	2.333
391.99	2.408
392.34	2.412
392.70	2.435
393.05	2.456
393.40	2.479
393.75	2.513
394.11	2.502
394.46	2.461
394.81	2.473
395.16	2.462
395.52	2.454
395.87	2.386
396.22	2.452
396.57	2.394
396.92	2.375
397.28	2.369
397.63	2.354
397.98	2.339
398.33	2.358
398.68	2.357
399.04	2.347
399.39	2.322
399.74	2.343
400.09	2.330
400.44	2.355
400.80	2.342
401.15	2.326
401.50	2.346
401.85	2.379
402.20	2.359
402.55	2.360
402.90	2.373
403.26	2.405
403.61	2.398
403.96	2.366
404.31	2.373
404.66	2.405
405.01	2.384
405.36	2.367
405.72	2.325
406.07	2.334
406.42	2.294
406.77	2.282
407.12	2.283
407.47	2.285
407.82	2.294
408.17	2.282
408.53	2.234
408.88	2.232
409.23	2.211
409.58	2.200
409.93	2.202
410.28	2.233
410.63	2.226
410.98	2.215
411.33	2.210
411.68	2.223
412.03	2.266
412.38	2.294
412.73	2.320
413.09	2.351
413.44	2.369
413.79	2.390
414.14	2.417
414.49	2.467
414.84	2.484
415.19	2.500
415.54	2.524
415.89	2.521
416.24	2.558
416.59	2.571
416.94	2.598
417.29	2.630
417.64	2.641
417.99	2.664
418.34	2.661
418.69	2.674
419.04	2.676
419.39	2.673
419.74	2.677
420.09	2.677
420.44	2.680
420.79	2.678
421.14	2.681
421.49	2.691
421.84	2.674
422.19	2.687
422.54	2.677
422.89	2.678
423.24	2.677
423.59	2.681
423.94	2.673
424.29	2.673
424.64	2.661
424.99	2.626
425.34	2.607
425.68	2.583
426.03	2.548
426.38	2.549
426.73	2.551
427.08	2.536
427.43	2.533
427.78	2.531
428.13	2.517
428.48	2.529
428.83	2.548
429.18	2.544
429.53	2.557
429.87	2.545
430.22	2.526
430.57	2.527
430.92	2.515
431.27	2.516
431.62	2.508
431.97	2.514
432.32	2.494
432.67	2.496
433.01	2.490
433.36	2.488
433.71	2.483
434.06	2.489
434.41	2.473
434.76	2.499
435.11	2.485
435.45	2.492
435.80	2.496
436.15	2.511
436.50	2.517
436.85	2.530
437.20	2.523
437.54	2.532
437.89	2.555
438.24	2.576
438.59	2.581
438.94	2.587
439.29	2.566
439.63	2.578
439.98	2.575
440.33	2.574
440.68	2.588
441.03	2.618
441.37	2.631
441.72	2.640
442.07	2.631
442.42	2.632
442.76	2.646
443.11	2.681
443.46	2.696
443.81	2.718
444.16	2.743
444.50	2.740
444.85	2.746
445.20	2.748
445.55	2.750
445.89	2.765
446.24	2.769
446.59	2.755
446.94	2.754
447.28	2.735
447.63	2.731
447.98	2.719
448.32	2.728
448.67	2.704
449.02	2.703
449.37	2.681
449.71	2.683
450.06	2.695
450.41	2.724
450.75	2.721
451.10	2.733
451.45	2.704
451.79	2.697
452.14	2.678
452.49	2.690
452.84	2.714
453.18	2.722
453.53	2.709
453.88	2.705
454.22	2.710
454.57	2.723
454.92	2.730
455.26	2.755
455.61	2.799
455.95	2.841
456.30	2.864
456.65	2.876
456.99	2.902
457.34	2.927
457.69	2.938
458.03	2.940
458.38	2.949
458.73	2.948
459.07	2.947
459.42	2.912
459.76	2.885
460.11	2.851
460.46	2.812
460.80	2.776
461.15	2.753
461.49	2.723
461.84	2.728
462.19	2.708
462.53	2.708
462.88	2.715
463.22	2.712
463.57	2.712
463.91	2.730
464.26	2.756
464.61	2.771
464.95	2.759
465.30	2.765
465.64	2.741
465.99	2.761
466.33	2.758
466.68	2.752
467.02	2.758
467.37	2.757
467.71	2.745
468.06	2.731
468.41	2.714
468.75	2.725
469.10	2.725
469.44	2.725
469.79	2.690
470.13	2.671
470.48	2.661
470.82	2.647
471.17	2.645
471.51	2.636
471.86	2.625
472.20	2.635
472.55	2.622
472.89	2.625
473.23	2.618
473.58	2.619
473.92	2.618
474.27	2.614
474.61	2.604
474.96	2.610
475.30	2.623
475.65	2.628
475.99	2.622
476.34	2.631
476.68	2.621
477.02	2.633
477.37	2.640
477.71	2.681
478.06	2.713
478.40	2.800
478.75	2.885
479.09	2.984
479.43	3.095
479.78	3.209
480.12	3.317
480.47	3.433
480.81	3.532
481.15	3.629
481.50	3.733
481.84	3.839
482.19	3.931
482.53	4.010
482.87	4.061
483.22	4.055
483.56	4.014
483.90	3.944
484.25	3.854
484.59	3.762
484.94	3.682
485.28	3.594
485.62	3.500
485.97	3.400
486.31	3.320
486.65	3.256
487.00	3.239
487.34	3.246
487.68	3.264
488.03	3.296
488.37	3.331
488.71	3.351
489.06	3.353
489.40	3.361
489.74	3.364
490.09	3.351
490.43	3.336
490.77	3.315
491.11	3.283
491.46	3.266
491.80	3.244
492.14	3.212
492.49	3.199
492.83	3.176
493.17	3.147
493.51	3.137
493.86	3.120
494.20	3.120
494.54	3.137
494.88	3.168
495.23	3.201
495.57	3.237
495.91	3.292
496.25	3.322
496.60	3.357
496.94	3.384
497.28	3.403
497.62	3.443
497.97	3.457
498.31	3.472
498.65	3.497
498.99	3.506
499.33	3.543
499.68	3.564
500.02	3.596
500.36	3.625
500.70	3.670
501.04	3.700
501.39	3.720
501.73	3.777
502.07	3.844
502.41	3.903
502.75	3.991
503.09	4.031
503.44	4.098
503.78	4.146
504.12	4.196
504.46	4.247
504.80	4.322
505.14	4.396
505.49	4.456
505.83	4.519
506.17	4.571
506.51	4.623
506.85	4.685
507.19	4.723
507.53	4.777
507.87	4.849
508.22	4.907
508.56	4.967
508.90	5.014
509.24	5.071
509.58	5.128
509.92	5.193
510.26	5.246
510.60	5.307
510.94	5.380
511.28	5.437
511.63	5.485
511.97	5.566
512.31	5.624
512.65	5.698
512.99	5.773
513.33	5.870
513.67	5.960
514.01	6.075
514.35	6.179
514.69	6.285
515.03	6.390
515.37	6.499
515.71	6.591
516.05	6.674
516.39	6.757
516.73	6.831
517.07	6.892
517.41	6.941
517.75	6.961
518.09	6.998
518.43	7.031
518.77	7.060
519.11	7.105
519.45	7.130
519.79	7.198
520.13	7.232
520.47	7.305
520.81	7.358
521.15	7.451
521.49	7.553
521.83	7.650
522.17	7.724
522.51	7.837
522.85	7.943
523.19	8.091
523.53	8.230
523.87	8.415
524.21	8.564
524.55	8.709
524.89	8.829
525.23	8.964
525.57	9.073
525.91	9.186
526.25	9.279
526.58	9.371
526.92	9.434
527.26	9.473
527.60	9.477
527.94	9.493
528.28	9.495
528.62	9.489
528.96	9.466
529.30	9.452
529.64	9.438
529.97	9.417
530.31	9.380
530.65	9.364
530.99	9.373
531.33	9.401
531.67	9.411
532.01	9.434
532.35	9.457
532.68	9.471
533.02	9.470
533.36	9.470
533.70	9.468
534.04	9.478
534.38	9.468
534.71	9.446
535.05	9.437
535.39	9.430
535.73	9.423
536.07	9.435
536.41	9.454
536.74	9.501
537.08	9.534
537.42	9.595
537.76	9.636
538.10	9.696
538.43	9.754
538.77	9.808
539.11	9.859
539.45	9.903
539.79	9.935
540.12	9.966
540.46	9.965
540.80	9.976
541.14	9.957
541.47	9.933
541.81	9.910
542.15	9.890
542.49	9.853
542.82	9.807
543.16	9.769
543.50	9.732
543.84	9.688
544.17	9.666
544.51	9.640
544.85	9.622
545.18	9.619
545.52	9.610
545.86	9.587
546.20	9.567
546.53	9.568
546.87	9.549
547.21	9.550
547.54	9.527
547.88	9.517
548.22	9.485
548.55	9.492
548.89	9.487
549.23	9.473
549.56	9.483
549.90	9.502
550.24	9.504
550.57	9.509
550.91	9.476
551.25	9.519
551.58	9.504
551.92	9.508
552.26	9.487
552.59	9.478
552.93	9.480
553.27	9.479
553.60	9.486
553.94	9.453
554.27	9.445
554.61	9.465
554.95	9.431
555.28	9.454
555.62	9.439
555.95	9.457
556.29	9.456
556.63	9.453
556.96	9.426
557.30	9.394
557.63	9.390
557.97	9.352
558.31	9.315
558.64	9.286
558.98	9.253
559.31	9.276
559.65	9.250
559.98	9.255
560.32	9.265
560.65	9.275
560.99	9.255
561.33	9.271
561.66	9.295
562.00	9.306
562.33	9.319
562.67	9.343
563.00	9.334
563.34	9.336
563.67	9.322
564.01	9.272
564.34	9.249
564.68	9.245
565.01	9.222
565.35	9.212
565.68	9.191
566.02	9.158
566.35	9.127
566.69	9.097
567.02	9.103
567.36	9.072
567.69	9.080
568.03	9.086
568.36	9.064
568.69	9.054
569.03	9.036
569.36	9.029
569.70	9.017
570.03	9.021
570.37	9.017
570.70	8.981
571.04	8.966
571.37	8.932
571.70	8.886
572.04	8.887
572.37	8.868
572.71	8.840
573.04	8.813
573.37	8.815
573.71	8.788
574.04	8.762
574.38	8.733
574.71	8.736
575.04	8.731
575.38	8.733
575.71	8.720
576.05	8.714
576.38	8.722
576.71	8.715
577.05	8.683
577.38	8.653
577.71	8.636
578.05	8.638
578.38	8.618
578.71	8.597
579.05	8.584
579.38	8.542
579.71	8.523
580.05	8.501
580.38	8.512
580.71	8.523
581.05	8.530
581.38	8.544
581.71	8.551
582.05	8.577
582.38	8.619
582.71	8.602
583.04	8.632
583.38	8.640
583.71	8.676
584.04	8.698
584.38	8.713
584.71	8.746
585.04	8.775
585.37	8.796
585.71	8.791
586.04	8.795
586.37	8.860
586.70	8.897
587.04	8.951
587.37	8.972
587.70	8.972
588.03	8.987
588.37	9.011
588.70	9.022
589.03	9.019
589.36	9.053
589.69	9.061
590.03	9.057
590.36	9.064
590.69	9.040
591.02	9.035
591.35	9.057
591.69	9.073
592.02	9.075
592.35	9.097
592.68	9.134
593.01	9.122
593.35	9.136
593.68	9.148
594.01	9.139
594.34	9.134
594.67	9.131
595.00	9.141
595.34	9.123
595.67	9.094
596.00	9.082
596.33	9.034
596.66	9.009
596.99	8.958
597.32	8.931
597.65	8.917
597.99	8.882
598.32	8.859
598.65	8.806
598.98	8.770
599.31	8.789
599.64	8.796
599.97	8.822
600.30	8.837
600.63	8.850
600.96	8.861
601.30	8.868
601.63	8.895
601.96	8.891
602.29	8.882
602.62	8.891
602.95	8.841
603.28	8.827
603.61	8.793
603.94	8.755
604.27	8.741
604.60	8.690
604.93	8.650
605.26	8.618
605.59	8.602
605.92	8.586
606.25	8.547
606.58	8.561
606.91	8.475
607.24	8.459
607.57	8.448
607.90	8.428
608.23	8.409
608.56	8.381
608.89	8.343
609.22	8.299
609.55	8.258
609.88	8.248
610.21	8.185
610.54	8.187
610.87	8.116
611.20	8.071
611.53	8.041
611.86	7.999
612.19	7.961
612.52	7.903
612.85	7.870
613.18	7.863
613.51	7.812
613.84	7.799
614.17	7.749
614.49	7.788
614.82	7.740
615.15	7.712
615.48	7.708
615.81	7.675
616.14	7.702
616.47	7.668
616.80	7.624
617.13	7.608
617.46	7.560
617.78	7.565
618.11	7.509
618.44	7.539
618.77	7.514
619.10	7.469
619.43	7.476
619.76	7.417
620.09	7.424
620.41	7.427
620.74	7.448
621.07	7.486
621.40	7.482
621.73	7.491
622.06	7.480
622.38	7.483
622.71	7.535
623.04	7.555
623.37	7.597
623.70	7.620
624.02	7.638
624.35	7.644
624.68	7.617
625.01	7.661
625.34	7.686
625.66	7.707
625.99	7.739
626.32	7.706
626.65	7.705
626.98	7.718
627.30	7.708
627.63	7.671
627.96	7.631
628.29	7.625
628.61	7.580
628.94	7.560
629.27	7.533
629.60	7.468
629.92	7.470
630.25	7.438
630.58	7.384
630.91	7.343
631.23	7.339
631.56	7.324
631.89	7.305
632.21	7.280
632.54	7.233
632.87	7.183
633.19	7.175
633.52	7.156
633.85	7.117
634.18	7.080
634.50	7.047
634.83	7.013
635.16	6.947
635.48	6.894
635.81	6.842
636.14	6.797
636.46	6.760
636.79	6.723
637.11	6.629
637.44	6.550
637.77	6.507
638.09	6.455
638.42	6.386
638.75	6.348
639.07	6.324
639.40	6.290
639.73	6.252
640.05	6.204
640.38	6.141
640.70	6.104
641.03	6.086
641.36	6.038
641.68	6.013
642.01	5.982
642.33	5.978
642.66	5.959
642.98	5.921
643.31	5.886
643.64	5.887
643.96	5.872
644.29	5.871
644.61	5.892
644.94	5.909
645.26	5.910
645.59	5.945
645.91	5.993
646.24	6.013
646.56	6.003
646.89	6.006
647.22	5.989
647.54	5.982
647.87	5.986
648.19	5.909
648.52	5.891
648.84	5.895
649.17	5.864
649.49	5.817
649.82	5.803
650.14	5.788
650.47	5.788
650.79	5.806
651.11	5.835
651.44	5.850
651.76	5.919
652.09	5.927
652.41	5.963
652.74	5.975
653.06	5.967
653.39	5.995
653.71	6.030
654.04	6.083
654.36	6.088
654.68	6.082
655.01	6.102
655.33	6.106
655.66	6.082
655.98	6.081
656.30	6.101
656.63	6.105
656.95	6.085
657.28	6.071
657.60	6.018
