OOIBase32 Version 2.0.0.6 Data File
++++++++++++++++++++++++++++++++++++
Date: 01-23-2012, 23:11:49
User: Valued Ocean Optics Customer
Spectrometer Serial Number: USB2E2917
Spectrometer Channel: Master
Integration Time (msec): 5
Spectra Averaged: 10
Boxcar Smoothing: 5
Correct for Electrical Dark: Enabled
Time Normalized: Disabled
Dual-beam Reference: Disabled
Reference Channel: Master
Temperature: Not acquired
Spectrometer Type: S2000
ADC Type: USB2000
Number of Pixels in File: 2048
Graph Title: 
>>>>>Begin Spectral Data<<<<<
180.30	0.000
180.67	0.000
181.03	-105.372
181.40	582.010
181.77	-4490.520
182.14	86.494
182.51	-711.390
182.88	55.537
183.25	3.026
183.62	125.798
183.99	30.227
184.36	149.376
184.73	294.366
185.10	-89.833
185.46	341.059
185.83	-394.492
186.20	164.525
186.57	371.906
186.94	65.744
187.31	38.261
187.68	-40.372
188.05	7.542
188.42	3.188
188.78	-7.328
189.15	-68.407
189.52	81.603
189.89	46.233
190.26	47.281
190.63	30.864
191.00	45.795
191.37	46.725
191.73	59.184
192.10	53.555
192.47	45.723
192.84	31.152
193.21	25.871
193.58	16.786
193.94	8.534
194.31	8.403
194.68	11.054
195.05	6.797
195.42	-1.207
195.79	-27.267
196.15	-11.864
196.52	5.711
196.89	4.530
197.26	5.071
197.63	10.404
198.00	10.601
198.36	9.510
198.73	-4.321
199.10	0.501
199.47	14.145
199.84	28.069
200.20	13.590
200.57	3.929
200.94	3.321
201.31	0.379
201.68	5.003
202.04	20.712
202.41	11.609
202.78	9.097
203.15	10.059
203.51	13.899
203.88	6.856
204.25	7.167
204.62	10.834
204.98	22.800
205.35	19.653
205.72	8.574
206.09	-6.765
206.46	-38.921
206.82	-30.222
207.19	-32.262
207.56	-94.206
207.92	-76.183
208.29	-74.596
208.66	-54.137
209.03	-59.802
209.39	-20.943
209.76	-2.866
210.13	-25.954
210.50	4.806
210.86	26.536
211.23	23.716
211.60	37.684
211.96	32.927
212.33	16.009
212.70	14.762
213.07	17.254
213.43	-14.959
213.80	-29.899
214.17	-5.185
214.53	-0.352
214.90	-4.633
215.27	4.443
215.63	3.344
216.00	6.957
216.37	7.964
216.74	-5.057
217.10	-0.080
217.47	-0.763
217.84	14.852
218.20	11.894
218.57	13.166
218.94	10.106
219.30	-2.884
219.67	-8.698
220.04	-3.890
220.40	-3.579
220.77	-1.915
221.13	2.348
221.50	8.227
221.87	2.314
222.23	-0.404
222.60	-7.427
222.97	-3.212
223.33	4.376
223.70	4.761
224.07	1.524
224.43	-0.245
224.80	3.194
225.16	-1.311
225.53	-3.209
225.90	-7.959
226.26	-5.580
226.63	-3.499
226.99	-3.017
227.36	-2.594
227.73	0.203
228.09	-0.260
228.46	1.869
228.82	3.021
229.19	2.874
229.56	1.494
229.92	5.292
230.29	5.719
230.65	5.200
231.02	3.964
231.38	1.409
231.75	-1.339
232.12	-3.501
232.48	-6.221
232.85	-7.375
233.21	-7.253
233.58	-6.701
233.94	-6.885
234.31	-6.885
234.68	-6.373
235.04	-4.976
235.41	-2.356
235.77	-0.648
236.14	1.279
236.50	4.150
236.87	3.727
237.23	4.251
237.60	3.968
237.96	3.062
238.33	1.912
238.69	1.202
239.06	0.861
239.42	0.401
239.79	-0.513
240.15	-0.876
240.52	-1.269
240.88	-0.542
241.25	-0.267
241.61	0.370
241.98	0.258
242.34	0.479
242.71	1.008
243.07	0.935
243.44	0.762
243.80	0.924
244.17	1.071
244.53	0.356
244.90	0.061
245.26	-0.145
245.63	-0.355
245.99	-0.370
246.36	-0.450
246.72	-0.446
247.09	-0.662
247.45	-0.302
247.81	-0.211
248.18	-0.245
248.54	0.333
248.91	0.082
249.27	0.427
249.64	0.826
250.00	1.139
250.36	0.847
250.73	0.429
251.09	0.819
251.46	0.494
251.82	0.499
252.19	0.594
252.55	0.316
252.91	0.774
253.28	0.483
253.64	0.180
254.01	0.294
254.37	0.806
254.73	1.388
255.10	1.428
255.46	1.740
255.83	1.581
256.19	1.449
256.55	1.364
256.92	1.121
257.28	0.976
257.65	0.993
258.01	0.864
258.37	0.821
258.74	0.524
259.10	0.353
259.46	0.059
259.83	-0.027
260.19	-0.089
260.55	0.051
260.92	0.059
261.28	0.070
261.64	0.039
262.01	-0.008
262.37	-0.002
262.73	0.212
263.10	0.304
263.46	0.395
263.82	0.159
264.19	-0.041
264.55	-0.678
264.91	-0.794
265.28	-0.876
265.64	-0.718
266.00	-0.626
266.37	-0.506
266.73	-0.563
267.09	-0.422
267.46	-0.396
267.82	-0.115
268.18	0.327
268.54	0.936
268.91	1.101
269.27	1.285
269.63	1.297
270.00	1.114
270.36	0.998
270.72	1.191
271.08	1.138
271.45	1.027
271.81	0.982
272.17	0.951
272.53	0.708
272.90	0.791
273.26	0.760
273.62	0.661
273.98	0.804
274.35	0.989
274.71	1.029
275.07	1.238
275.43	1.445
275.80	1.700
276.16	1.729
276.52	1.699
276.88	1.635
277.25	1.314
277.61	1.142
277.97	0.907
278.33	0.753
278.69	0.378
279.06	0.116
279.42	0.121
279.78	-0.093
280.14	-0.228
280.50	-0.099
280.87	-0.016
281.23	0.211
281.59	0.397
281.95	0.513
282.31	0.588
282.68	0.523
283.04	0.463
283.40	0.447
283.76	0.545
284.12	0.657
284.48	0.740
284.85	0.559
285.21	0.621
285.57	0.436
285.93	0.540
286.29	0.489
286.65	0.771
287.02	1.197
287.38	1.147
287.74	0.991
288.10	0.880
288.46	0.760
288.82	0.871
289.18	0.813
289.54	0.972
289.91	0.960
290.27	0.975
290.63	0.878
290.99	0.646
291.35	0.805
291.71	1.026
292.07	0.917
292.43	0.954
292.79	0.995
293.16	0.931
293.52	0.933
293.88	0.937
294.24	0.963
294.60	0.986
294.96	0.880
295.32	0.832
295.68	0.741
296.04	0.883
296.40	0.859
296.76	0.763
297.12	0.678
297.49	0.648
297.85	0.540
298.21	0.392
298.57	0.169
298.93	0.247
299.29	0.206
299.65	0.340
300.01	0.305
300.37	0.400
300.73	0.571
301.09	0.839
301.45	0.875
301.81	1.020
302.17	1.212
302.53	1.231
302.89	1.081
303.25	0.976
303.61	0.817
303.97	0.720
304.33	0.705
304.69	0.759
305.05	0.610
305.41	0.548
305.77	0.507
306.13	0.371
306.49	0.365
306.85	0.530
307.21	0.603
307.57	0.647
307.93	0.724
308.29	0.788
308.65	0.659
309.01	0.557
309.37	0.529
309.73	0.493
310.09	0.577
310.45	0.718
310.81	0.664
311.17	0.705
311.53	0.682
311.89	0.672
312.25	0.619
312.61	0.564
312.96	0.737
313.32	0.844
313.68	0.811
314.04	0.726
314.40	0.707
314.76	0.723
315.12	0.731
315.48	0.755
315.84	0.710
316.20	0.648
316.56	0.527
316.92	0.401
317.27	0.332
317.63	0.404
317.99	0.355
318.35	0.224
318.71	0.251
319.07	0.328
319.43	0.322
319.79	0.445
320.15	0.461
320.50	0.700
320.86	0.737
321.22	0.762
321.58	0.721
321.94	0.749
322.30	0.851
322.66	0.736
323.01	0.519
323.37	0.423
323.73	0.260
324.09	0.180
324.45	0.197
324.81	0.257
325.17	0.243
325.52	0.277
325.88	0.332
326.24	0.378
326.60	0.360
326.96	0.460
327.31	0.475
327.67	0.495
328.03	0.514
328.39	0.404
328.75	0.380
329.11	0.424
329.46	0.419
329.82	0.304
330.18	0.236
330.54	0.254
330.90	0.134
331.25	0.136
331.61	0.178
331.97	0.154
332.33	0.210
332.68	0.261
333.04	0.221
333.40	0.207
333.76	0.276
334.11	0.333
334.47	0.366
334.83	0.357
335.19	0.324
335.54	0.320
335.90	0.284
336.26	0.304
336.62	0.179
336.97	0.094
337.33	0.018
337.69	0.020
338.05	-0.087
338.40	-0.120
338.76	-0.086
339.12	0.006
339.48	-0.005
339.83	0.050
340.19	-0.014
340.55	0.122
340.90	0.173
341.26	0.153
341.62	0.045
341.97	0.064
342.33	0.073
342.69	0.103
343.04	0.080
343.40	0.034
343.76	-0.029
344.12	0.006
344.47	0.007
344.83	0.061
345.19	0.148
345.54	0.240
345.90	0.229
346.26	0.335
346.61	0.376
346.97	0.373
347.32	0.483
347.68	0.604
348.04	0.573
348.39	0.442
348.75	0.415
349.11	0.370
349.46	0.355
349.82	0.341
350.18	0.205
350.53	0.236
350.89	0.192
351.24	0.135
351.60	0.111
351.96	0.148
352.31	0.215
352.67	0.247
353.02	0.267
353.38	0.318
353.74	0.356
354.09	0.371
354.45	0.325
354.80	0.317
355.16	0.311
355.52	0.274
355.87	0.180
356.23	0.167
356.58	0.135
356.94	0.141
357.29	0.119
357.65	0.134
358.00	0.168
358.36	0.121
358.72	0.173
359.07	0.197
359.43	0.242
359.78	0.307
360.14	0.367
360.49	0.375
360.85	0.378
361.20	0.372
361.56	0.322
361.91	0.316
362.27	0.313
362.62	0.324
362.98	0.339
363.33	0.317
363.69	0.323
364.04	0.298
364.40	0.266
364.75	0.277
365.11	0.276
365.46	0.285
365.82	0.302
366.17	0.308
366.53	0.320
366.88	0.337
367.24	0.371
367.59	0.350
367.95	0.396
368.30	0.455
368.66	0.471
369.01	0.495
369.37	0.557
369.72	0.605
370.08	0.670
370.43	0.682
370.78	0.657
371.14	0.651
371.49	0.717
371.85	0.724
372.20	0.729
372.56	0.713
372.91	0.672
373.26	0.699
373.62	0.624
373.97	0.673
374.33	0.663
374.68	0.680
375.03	0.754
375.39	0.771
375.74	0.733
376.10	0.767
376.45	0.834
376.80	0.917
377.16	0.906
377.51	0.995
377.87	1.002
378.22	1.000
378.57	1.024
378.93	0.990
379.28	1.017
379.63	1.058
379.99	1.101
380.34	1.105
380.70	1.141
381.05	1.203
381.40	1.213
381.76	1.233
382.11	1.323
382.46	1.394
382.82	1.466
383.17	1.473
383.52	1.514
383.88	1.481
384.23	1.495
384.58	1.519
384.94	1.533
385.29	1.608
385.64	1.644
385.99	1.671
386.35	1.688
386.70	1.709
387.05	1.708
387.41	1.730
387.76	1.738
388.11	1.764
388.47	1.766
388.82	1.799
389.17	1.795
389.52	1.848
389.88	1.865
390.23	1.906
390.58	1.941
390.93	1.995
391.29	2.000
391.64	2.092
391.99	2.169
392.34	2.241
392.70	2.265
393.05	2.262
393.40	2.238
393.75	2.266
394.11	2.264
394.46	2.240
394.81	2.263
395.16	2.283
395.52	2.273
395.87	2.251
396.22	2.227
396.57	2.197
396.92	2.200
397.28	2.213
397.63	2.178
397.98	2.138
398.33	2.105
398.68	2.081
399.04	2.080
399.39	2.057
399.74	2.016
400.09	1.986
400.44	2.011
400.80	2.018
401.15	2.002
401.50	2.019
401.85	2.040
402.20	2.063
402.55	2.092
402.90	2.083
403.26	2.085
403.61	2.077
403.96	2.088
404.31	2.043
404.66	2.056
405.01	2.028
405.36	2.021
405.72	2.007
406.07	2.013
406.42	1.977
406.77	1.973
407.12	1.958
407.47	1.965
407.82	1.974
408.17	1.991
408.53	1.952
408.88	1.950
409.23	1.919
409.58	1.889
409.93	1.885
410.28	1.883
410.63	1.863
410.98	1.858
411.33	1.873
411.68	1.873
412.03	1.881
412.38	1.887
412.73	1.915
413.09	1.931
413.44	1.949
413.79	1.947
414.14	1.975
414.49	2.018
414.84	2.036
415.19	2.041
415.54	2.049
415.89	2.077
416.24	2.124
416.59	2.143
416.94	2.170
417.29	2.200
417.64	2.204
417.99	2.207
418.34	2.211
418.69	2.239
419.04	2.253
419.39	2.259
419.74	2.248
420.09	2.234
420.44	2.241
420.79	2.230
421.14	2.224
421.49	2.248
421.84	2.236
422.19	2.241
422.54	2.232
422.89	2.219
423.24	2.213
423.59	2.210
423.94	2.188
424.29	2.169
424.64	2.163
424.99	2.148
425.34	2.102
425.68	2.098
426.03	2.067
426.38	2.043
426.73	2.039
427.08	2.005
427.43	2.016
427.78	2.037
428.13	2.009
428.48	2.012
428.83	2.011
429.18	2.028
429.53	2.031
429.87	2.014
430.22	1.992
430.57	2.010
430.92	2.027
431.27	2.013
431.62	1.996
431.97	2.020
432.32	2.015
432.67	2.013
433.01	2.003
433.36	1.977
433.71	1.966
434.06	1.973
434.41	1.951
434.76	1.942
435.11	1.942
435.45	1.942
435.80	1.930
436.15	1.936
436.50	1.946
436.85	1.957
437.20	1.971
437.54	1.982
437.89	1.984
438.24	1.990
438.59	1.980
438.94	1.986
439.29	1.981
439.63	1.991
439.98	1.975
440.33	1.974
440.68	1.980
441.03	1.999
441.37	2.033
441.72	2.044
442.07	2.053
442.42	2.083
442.76	2.099
443.11	2.117
443.46	2.141
443.81	2.174
444.16	2.192
444.50	2.200
444.85	2.203
445.20	2.197
445.55	2.212
445.89	2.212
446.24	2.217
446.59	2.200
446.94	2.209
447.28	2.198
447.63	2.189
447.98	2.168
448.32	2.159
448.67	2.162
449.02	2.164
449.37	2.138
449.71	2.148
450.06	2.146
450.41	2.160
450.75	2.170
451.10	2.191
451.45	2.183
451.79	2.191
452.14	2.189
452.49	2.198
452.84	2.190
453.18	2.210
453.53	2.199
453.88	2.208
454.22	2.229
454.57	2.234
454.92	2.232
455.26	2.264
455.61	2.311
455.95	2.347
456.30	2.349
456.65	2.385
456.99	2.403
457.34	2.434
457.69	2.454
458.03	2.456
458.38	2.463
458.73	2.465
459.07	2.450
459.42	2.422
459.76	2.396
460.11	2.378
460.46	2.346
460.80	2.321
461.15	2.299
461.49	2.246
461.84	2.232
462.19	2.209
462.53	2.194
462.88	2.196
463.22	2.186
463.57	2.189
463.91	2.192
464.26	2.202
464.61	2.206
464.95	2.190
465.30	2.216
465.64	2.214
465.99	2.220
466.33	2.227
466.68	2.222
467.02	2.233
467.37	2.220
467.71	2.209
468.06	2.198
468.41	2.190
468.75	2.190
469.10	2.180
469.44	2.160
469.79	2.142
470.13	2.096
470.48	2.091
470.82	2.073
471.17	2.085
471.51	2.078
471.86	2.083
472.20	2.066
472.55	2.059
472.89	2.051
473.23	2.042
473.58	2.044
473.92	2.064
474.27	2.063
474.61	2.053
474.96	2.049
475.30	2.060
475.65	2.045
475.99	2.045
476.34	2.045
476.68	2.046
477.02	2.067
477.37	2.078
477.71	2.113
478.06	2.141
478.40	2.212
478.75	2.280
479.09	2.377
479.43	2.474
479.78	2.582
480.12	2.678
480.47	2.777
480.81	2.861
481.15	2.949
481.50	3.035
481.84	3.125
482.19	3.212
482.53	3.285
482.87	3.327
483.22	3.333
483.56	3.302
483.90	3.251
484.25	3.173
484.59	3.107
484.94	3.035
485.28	2.966
485.62	2.889
485.97	2.802
486.31	2.739
486.65	2.681
487.00	2.665
487.34	2.674
487.68	2.694
488.03	2.721
488.37	2.745
488.71	2.764
489.06	2.770
489.40	2.793
489.74	2.804
490.09	2.799
490.43	2.797
490.77	2.789
491.11	2.768
491.46	2.761
491.80	2.759
492.14	2.746
492.49	2.741
492.83	2.732
493.17	2.709
493.51	2.702
493.86	2.701
494.20	2.712
494.54	2.727
494.88	2.767
495.23	2.798
495.57	2.839
495.91	2.886
496.25	2.935
496.60	2.977
496.94	3.001
497.28	3.040
497.62	3.080
497.97	3.132
498.31	3.177
498.65	3.227
498.99	3.262
499.33	3.332
499.68	3.382
500.02	3.436
500.36	3.481
500.70	3.555
501.04	3.612
501.39	3.662
501.73	3.718
502.07	3.790
502.41	3.844
502.75	3.946
503.09	4.006
503.44	4.104
503.78	4.174
504.12	4.262
504.46	4.355
504.80	4.461
505.14	4.584
505.49	4.699
505.83	4.788
506.17	4.896
506.51	4.973
506.85	5.069
507.19	5.154
507.53	5.261
507.87	5.379
508.22	5.471
508.56	5.562
508.90	5.636
509.24	5.719
509.58	5.820
509.92	5.924
510.26	6.040
510.60	6.151
510.94	6.252
511.28	6.354
511.63	6.456
511.97	6.591
512.31	6.721
512.65	6.865
512.99	7.022
513.33	7.198
513.67	7.371
514.01	7.549
514.35	7.732
514.69	7.907
515.03	8.086
515.37	8.265
515.71	8.408
516.05	8.550
516.39	8.677
516.73	8.807
517.07	8.911
517.41	9.008
517.75	9.112
518.09	9.211
518.43	9.313
518.77	9.398
519.11	9.497
519.45	9.588
519.79	9.717
520.13	9.865
520.47	9.984
520.81	10.137
521.15	10.304
521.49	10.440
521.83	10.581
522.17	10.721
522.51	10.886
522.85	11.052
523.19	11.284
523.53	11.491
523.87	11.714
524.21	11.950
524.55	12.169
524.89	12.368
525.23	12.569
525.57	12.748
525.91	12.914
526.25	13.058
526.58	13.191
526.92	13.284
527.26	13.353
527.60	13.395
527.94	13.430
528.28	13.452
528.62	13.462
528.96	13.463
529.30	13.452
529.64	13.449
529.97	13.447
530.31	13.436
530.65	13.448
530.99	13.476
531.33	13.531
531.67	13.569
532.01	13.606
532.35	13.624
532.68	13.655
533.02	13.672
533.36	13.692
533.70	13.711
534.04	13.725
534.38	13.733
534.71	13.736
535.05	13.738
535.39	13.732
535.73	13.735
536.07	13.786
536.41	13.813
536.74	13.875
537.08	13.913
537.42	13.979
537.76	14.046
538.10	14.113
538.43	14.182
538.77	14.229
539.11	14.307
539.45	14.353
539.79	14.385
540.12	14.421
540.46	14.445
540.80	14.466
541.14	14.460
541.47	14.426
541.81	14.402
542.15	14.383
542.49	14.355
542.82	14.301
543.16	14.284
543.50	14.256
543.84	14.220
544.17	14.192
544.51	14.176
544.85	14.153
545.18	14.167
545.52	14.173
545.86	14.183
546.20	14.218
546.53	14.231
546.87	14.220
547.21	14.225
547.54	14.226
547.88	14.229
548.22	14.216
548.55	14.216
548.89	14.217
549.23	14.224
549.56	14.210
549.90	14.187
550.24	14.201
550.57	14.221
550.91	14.197
551.25	14.199
551.58	14.211
551.92	14.220
552.26	14.215
552.59	14.215
552.93	14.202
553.27	14.191
553.60	14.190
553.94	14.152
554.27	14.104
554.61	14.111
554.95	14.102
555.28	14.043
555.62	13.999
555.95	14.001
556.29	13.976
556.63	13.916
556.96	13.904
557.30	13.872
557.63	13.836
557.97	13.821
558.31	13.760
558.64	13.706
558.98	13.684
559.31	13.674
559.65	13.627
559.98	13.567
560.32	13.516
560.65	13.415
560.99	13.342
561.33	13.294
561.66	13.223
562.00	13.179
562.33	13.151
562.67	13.100
563.00	13.042
563.34	13.008
563.67	12.948
564.01	12.902
564.34	12.883
564.68	12.841
565.01	12.786
565.35	12.745
565.68	12.675
566.02	12.595
566.35	12.515
566.69	12.412
567.02	12.314
567.36	12.252
567.69	12.178
568.03	12.098
568.36	12.024
568.69	11.963
569.03	11.878
569.36	11.830
569.70	11.721
570.03	11.664
570.37	11.623
570.70	11.543
571.04	11.456
571.37	11.386
571.70	11.319
572.04	11.234
572.37	11.147
572.71	11.086
573.04	11.036
573.37	11.012
573.71	10.956
574.04	10.886
574.38	10.829
574.71	10.797
575.04	10.754
575.38	10.673
575.71	10.619
576.05	10.583
576.38	10.545
576.71	10.446
577.05	10.384
577.38	10.312
577.71	10.253
578.05	10.204
578.38	10.126
578.71	10.057
579.05	10.017
579.38	9.958
579.71	9.893
580.05	9.821
580.38	9.776
580.71	9.708
581.05	9.653
581.38	9.617
581.71	9.579
582.05	9.557
582.38	9.534
582.71	9.465
583.04	9.407
583.38	9.341
583.71	9.313
584.04	9.290
584.38	9.264
584.71	9.251
585.04	9.227
585.37	9.184
585.71	9.163
586.04	9.129
586.37	9.159
586.70	9.163
587.04	9.175
587.37	9.122
587.70	9.100
588.03	9.067
588.37	9.039
588.70	8.999
589.03	8.989
589.36	8.958
589.69	8.907
590.03	8.865
590.36	8.826
590.69	8.756
591.02	8.734
591.35	8.684
591.69	8.674
592.02	8.639
592.35	8.606
592.68	8.591
593.01	8.527
593.35	8.528
593.68	8.489
594.01	8.478
594.34	8.450
594.67	8.430
595.00	8.400
595.34	8.357
595.67	8.311
596.00	8.274
596.33	8.213
596.66	8.196
596.99	8.150
597.32	8.101
597.65	8.055
597.99	8.023
598.32	7.974
598.65	7.932
598.98	7.891
599.31	7.867
599.64	7.855
599.97	7.849
600.30	7.828
600.63	7.819
600.96	7.823
601.30	7.817
601.63	7.842
601.96	7.832
602.29	7.839
602.62	7.822
602.95	7.814
603.28	7.784
603.61	7.734
603.94	7.700
604.27	7.683
604.60	7.639
604.93	7.603
605.26	7.551
605.59	7.511
605.92	7.462
606.25	7.428
606.58	7.373
606.91	7.301
607.24	7.283
607.57	7.248
607.90	7.189
608.23	7.113
608.56	7.068
608.89	7.019
609.22	6.968
609.55	6.902
609.88	6.839
610.21	6.804
610.54	6.786
610.87	6.727
611.20	6.663
611.53	6.587
611.86	6.551
612.19	6.442
612.52	6.355
612.85	6.330
613.18	6.279
613.51	6.206
613.84	6.127
614.17	6.073
614.49	6.040
614.82	6.000
615.15	5.973
615.48	5.987
615.81	5.975
616.14	5.950
616.47	5.901
616.80	5.869
617.13	5.852
617.46	5.818
617.78	5.765
618.11	5.700
618.44	5.651
618.77	5.604
619.10	5.526
619.43	5.504
619.76	5.471
620.09	5.437
620.41	5.442
620.74	5.455
621.07	5.486
621.40	5.488
621.73	5.529
622.06	5.563
622.38	5.568
622.71	5.591
623.04	5.625
623.37	5.662
623.70	5.686
624.02	5.692
624.35	5.725
624.68	5.714
625.01	5.726
625.34	5.712
625.66	5.698
625.99	5.732
626.32	5.720
626.65	5.707
626.98	5.693
627.30	5.676
627.63	5.641
627.96	5.550
628.29	5.516
628.61	5.492
628.94	5.463
629.27	5.432
629.60	5.351
629.92	5.355
630.25	5.286
630.58	5.244
630.91	5.213
631.23	5.185
631.56	5.175
631.89	5.143
632.21	5.098
632.54	5.052
632.87	5.023
633.19	4.972
633.52	4.881
633.85	4.860
634.18	4.785
634.50	4.708
634.83	4.649
635.16	4.540
635.48	4.438
635.81	4.361
636.14	4.262
636.46	4.154
636.79	4.087
637.11	4.008
637.44	3.883
637.77	3.826
638.09	3.691
638.42	3.538
638.75	3.495
639.07	3.462
639.40	3.359
639.73	3.294
640.05	3.246
640.38	3.191
640.70	3.086
641.03	3.019
641.36	2.937
641.68	2.921
642.01	2.909
642.33	2.856
642.66	2.754
642.98	2.740
643.31	2.676
643.64	2.624
643.96	2.553
644.29	2.560
644.61	2.552
644.94	2.519
645.26	2.519
645.59	2.521
645.91	2.508
646.24	2.493
646.56	2.438
646.89	2.407
647.22	2.354
647.54	2.368
647.87	2.343
648.19	2.325
648.52	2.312
648.84	2.290
649.17	2.254
649.49	2.240
649.82	2.259
650.14	2.250
650.47	2.237
650.79	2.278
651.11	2.261
651.44	2.276
651.76	2.263
652.09	2.292
652.41	2.249
652.74	2.256
653.06	2.227
653.39	2.220
653.71	2.269
654.04	2.289
654.36	2.272
654.68	2.297
655.01	2.297
