OOIBase32 Version 2.0.0.6 Data File
++++++++++++++++++++++++++++++++++++
Date: 01-23-2012, 23:15:54
User: Valued Ocean Optics Customer
Spectrometer Serial Number: USB2E2917
Spectrometer Channel: Master
Integration Time (msec): 5
Spectra Averaged: 10
Boxcar Smoothing: 5
Correct for Electrical Dark: Enabled
Time Normalized: Disabled
Dual-beam Reference: Disabled
Reference Channel: Master
Temperature: Not acquired
Spectrometer Type: S2000
ADC Type: USB2000
Number of Pixels in File: 2048
Graph Title: 
>>>>>Begin Spectral Data<<<<<
180.30	0.000
180.67	0.000
181.03	97.591
181.40	325.926
181.77	-2075.612
182.14	-34.882
182.51	-469.849
182.88	95.285
183.25	69.630
183.62	77.191
183.99	42.270
184.36	45.772
184.73	258.218
185.10	17.695
185.46	-311.980
185.83	-361.250
186.20	1007.619
186.57	345.379
186.94	39.312
187.31	63.168
187.68	53.413
188.05	1.333
188.42	38.004
188.78	173.151
189.15	447.400
189.52	-24.946
189.89	5.875
190.26	9.286
190.63	23.279
191.00	28.507
191.37	18.783
191.73	26.996
192.10	31.605
192.47	37.514
192.84	38.793
193.21	49.191
193.58	44.774
193.94	47.651
194.31	44.657
194.68	31.208
195.05	28.490
195.42	30.150
195.79	9.571
196.15	1.402
196.52	-24.396
196.89	-18.037
197.26	-43.096
197.63	-40.443
198.00	-36.287
198.36	-44.743
198.73	-61.328
199.10	-46.859
199.47	-38.520
199.84	-29.403
200.20	-25.233
200.57	-3.226
200.94	-17.009
201.31	-3.255
201.68	-12.587
202.04	-6.766
202.41	-3.686
202.78	-5.788
203.15	-19.114
203.51	1.417
203.88	-5.720
204.25	-10.265
204.62	-32.686
204.98	-39.778
205.35	-68.517
205.72	-70.033
206.09	-83.285
206.46	-138.060
206.82	-133.542
207.19	-122.641
207.56	-215.240
207.92	-195.341
208.29	-219.872
208.66	-145.924
209.03	-126.088
209.39	-88.501
209.76	-90.723
210.13	-137.799
210.50	-103.769
210.86	-82.983
211.23	-80.439
211.60	-50.305
211.96	-37.275
212.33	-19.307
212.70	-35.328
213.07	-49.417
213.43	-90.677
213.80	-70.762
214.17	-32.423
214.53	-10.779
214.90	-3.817
215.27	7.579
215.63	7.595
216.00	5.246
216.37	3.039
216.74	-1.552
217.10	7.070
217.47	10.828
217.84	12.849
218.20	8.834
218.57	2.598
218.94	2.134
219.30	-6.742
219.67	-12.525
220.04	-7.173
220.40	-9.205
220.77	-12.166
221.13	-9.004
221.50	-6.110
221.87	-11.396
222.23	-19.906
222.60	-21.486
222.97	-18.151
223.33	-13.846
223.70	-7.505
224.07	-10.587
224.43	-10.580
224.80	-4.881
225.16	-6.708
225.53	-7.338
225.90	-7.647
226.26	-4.093
226.63	-2.942
226.99	-2.162
227.36	-2.199
227.73	-0.806
228.09	-1.213
228.46	1.146
228.82	1.060
229.19	1.490
229.56	2.032
229.92	4.270
230.29	4.559
230.65	3.504
231.02	1.784
231.38	0.231
231.75	-3.026
232.12	-3.810
232.48	-7.520
232.85	-9.029
233.21	-10.267
233.58	-11.135
233.94	-11.651
234.31	-11.640
234.68	-9.896
235.04	-10.187
235.41	-9.795
235.77	-8.526
236.14	-6.515
236.50	-4.016
236.87	-2.818
237.23	-1.384
237.60	-1.823
237.96	-1.717
238.33	-2.102
238.69	-2.712
239.06	-2.299
239.42	-1.757
239.79	-2.166
240.15	-2.214
240.52	-2.551
240.88	-1.932
241.25	-2.008
241.61	-1.010
241.98	-1.277
242.34	-1.175
242.71	-0.821
243.07	-0.552
243.44	-0.658
243.80	-0.124
244.17	0.058
244.53	0.073
244.90	-0.169
245.26	-0.252
245.63	-0.584
245.99	-0.617
246.36	-0.545
246.72	-0.301
247.09	-0.731
247.45	-0.365
247.81	-0.445
248.18	-0.581
248.54	-0.384
248.91	-0.627
249.27	-0.503
249.64	-0.176
250.00	0.027
250.36	-0.190
250.73	-0.630
251.09	0.240
251.46	0.030
251.82	-0.089
252.19	-0.068
252.55	-0.143
252.91	0.448
253.28	0.377
253.64	-0.019
254.01	0.113
254.37	0.326
254.73	0.721
255.10	0.659
255.46	1.034
255.83	1.365
256.19	1.433
256.55	0.947
256.92	1.018
257.28	1.005
257.65	1.223
258.01	1.160
258.37	1.053
258.74	0.876
259.10	0.751
259.46	0.491
259.83	0.369
260.19	0.167
260.55	0.621
260.92	0.246
261.28	0.121
261.64	-0.092
262.01	-0.155
262.37	-0.087
262.73	-0.121
263.10	-0.044
263.46	-0.107
263.82	-0.157
264.19	-0.074
264.55	-0.718
264.91	-0.733
265.28	-0.583
265.64	-0.468
266.00	-0.330
266.37	-0.151
266.73	-0.178
267.09	-0.312
267.46	-0.132
267.82	-0.371
268.18	-0.167
268.54	0.276
268.91	0.511
269.27	0.551
269.63	0.610
270.00	0.529
270.36	0.368
270.72	0.493
271.08	0.406
271.45	0.154
271.81	0.129
272.17	-0.065
272.53	-0.183
272.90	-0.090
273.26	0.039
273.62	-0.275
273.98	-0.616
274.35	-0.689
274.71	-0.824
275.07	-0.483
275.43	-0.164
275.80	0.005
276.16	0.107
276.52	0.095
276.88	-0.201
277.25	-0.554
277.61	-0.411
277.97	-0.156
278.33	-0.082
278.69	-0.068
279.06	-0.292
279.42	-0.541
279.78	-0.417
280.14	-0.361
280.50	-0.331
280.87	-0.142
281.23	-0.017
281.59	0.092
281.95	0.136
282.31	0.105
282.68	0.021
283.04	-0.014
283.40	0.063
283.76	0.071
284.12	0.169
284.48	0.226
284.85	0.316
285.21	0.415
285.57	0.250
285.93	0.325
286.29	0.235
286.65	0.445
287.02	0.757
287.38	0.816
287.74	0.730
288.10	0.576
288.46	0.475
288.82	0.277
289.18	0.137
289.54	0.275
289.91	0.241
290.27	0.448
290.63	0.470
290.99	0.362
291.35	0.429
291.71	0.476
292.07	0.508
292.43	0.548
292.79	0.645
293.16	0.753
293.52	0.782
293.88	0.962
294.24	1.031
294.60	1.041
294.96	0.983
295.32	0.974
295.68	1.031
296.04	1.028
296.40	1.116
296.76	1.125
297.12	1.046
297.49	0.996
297.85	0.791
298.21	0.627
298.57	0.429
298.93	0.466
299.29	0.496
299.65	0.468
300.01	0.438
300.37	0.391
300.73	0.518
301.09	0.621
301.45	0.703
301.81	0.823
302.17	0.957
302.53	0.982
302.89	0.876
303.25	0.860
303.61	0.874
303.97	0.804
304.33	0.754
304.69	0.751
305.05	0.674
305.41	0.592
305.77	0.518
306.13	0.464
306.49	0.403
306.85	0.468
307.21	0.380
307.57	0.395
307.93	0.527
308.29	0.684
308.65	0.656
309.01	0.726
309.37	0.721
309.73	0.811
310.09	0.829
310.45	0.933
310.81	0.936
311.17	0.983
311.53	0.890
311.89	0.917
312.25	0.822
312.61	0.780
312.96	0.877
313.32	0.995
313.68	0.878
314.04	0.829
314.40	0.872
314.76	0.827
315.12	0.851
315.48	1.001
315.84	0.972
316.20	0.937
316.56	0.851
316.92	0.761
317.27	0.688
317.63	0.793
317.99	0.861
318.35	0.825
318.71	0.864
319.07	0.878
319.43	0.858
319.79	0.923
320.15	0.998
320.50	1.109
320.86	1.097
321.22	1.068
321.58	1.044
321.94	0.933
322.30	0.859
322.66	1.004
323.01	0.942
323.37	0.816
323.73	0.766
324.09	0.654
324.45	0.697
324.81	0.644
325.17	0.780
325.52	0.737
325.88	0.721
326.24	0.827
326.60	0.718
326.96	0.721
327.31	0.815
327.67	0.720
328.03	0.730
328.39	0.666
328.75	0.768
329.11	0.765
329.46	0.847
329.82	0.959
330.18	0.923
330.54	0.840
330.90	0.770
331.25	0.770
331.61	0.887
331.97	0.981
332.33	0.956
332.68	0.922
333.04	0.774
333.40	0.705
333.76	0.612
334.11	0.636
334.47	0.659
334.83	0.755
335.19	0.707
335.54	0.652
335.90	0.602
336.26	0.666
336.62	0.602
336.97	0.662
337.33	0.584
337.69	0.591
338.05	0.452
338.40	0.414
338.76	0.419
339.12	0.474
339.48	0.447
339.83	0.430
340.19	0.391
340.55	0.521
340.90	0.515
341.26	0.586
341.62	0.672
341.97	0.781
342.33	0.843
342.69	0.834
343.04	0.891
343.40	0.912
343.76	0.938
344.12	0.966
344.47	0.966
344.83	1.019
345.19	1.069
345.54	1.097
345.90	1.148
346.26	1.256
346.61	1.285
346.97	1.281
347.32	1.300
347.68	1.316
348.04	1.325
348.39	1.225
348.75	1.236
349.11	1.179
349.46	1.109
349.82	1.071
350.18	0.916
350.53	0.928
350.89	0.925
351.24	0.935
351.60	0.976
351.96	1.007
352.31	1.070
352.67	1.078
353.02	1.120
353.38	1.138
353.74	1.135
354.09	1.162
354.45	1.192
354.80	1.178
355.16	1.182
355.52	1.154
355.87	1.089
356.23	1.111
356.58	1.084
356.94	1.091
357.29	1.144
357.65	1.163
358.00	1.146
358.36	1.149
358.72	1.131
359.07	1.124
359.43	1.124
359.78	1.166
360.14	1.139
360.49	1.122
360.85	1.129
361.20	1.106
361.56	1.096
361.91	1.172
362.27	1.150
362.62	1.193
362.98	1.238
363.33	1.234
363.69	1.233
364.04	1.293
364.40	1.312
364.75	1.301
365.11	1.330
365.46	1.301
365.82	1.351
366.17	1.371
366.53	1.371
366.88	1.356
367.24	1.423
367.59	1.406
367.95	1.355
368.30	1.362
368.66	1.377
369.01	1.358
369.37	1.428
369.72	1.432
370.08	1.438
370.43	1.449
370.78	1.454
371.14	1.393
371.49	1.438
371.85	1.456
372.20	1.460
372.56	1.479
372.91	1.505
373.26	1.501
373.62	1.411
373.97	1.428
374.33	1.432
374.68	1.430
375.03	1.453
375.39	1.425
375.74	1.428
376.10	1.465
376.45	1.499
376.80	1.516
377.16	1.467
377.51	1.537
377.87	1.525
378.22	1.499
378.57	1.488
378.93	1.510
379.28	1.539
379.63	1.541
379.99	1.558
380.34	1.521
380.70	1.505
381.05	1.571
381.40	1.536
381.76	1.569
382.11	1.571
382.46	1.611
382.82	1.627
383.17	1.627
383.52	1.624
383.88	1.587
384.23	1.576
384.58	1.569
384.94	1.544
385.29	1.567
385.64	1.553
385.99	1.592
386.35	1.594
386.70	1.596
387.05	1.590
387.41	1.590
387.76	1.584
388.11	1.599
388.47	1.606
388.82	1.633
389.17	1.638
389.52	1.619
389.88	1.605
390.23	1.604
390.58	1.628
390.93	1.650
391.29	1.668
391.64	1.695
391.99	1.734
392.34	1.777
392.70	1.735
393.05	1.718
393.40	1.714
393.75	1.699
394.11	1.691
394.46	1.631
394.81	1.601
395.16	1.546
395.52	1.527
395.87	1.506
396.22	1.456
396.57	1.448
396.92	1.419
397.28	1.393
397.63	1.387
397.98	1.387
398.33	1.378
398.68	1.367
399.04	1.374
399.39	1.325
399.74	1.291
400.09	1.287
400.44	1.310
400.80	1.328
401.15	1.341
401.50	1.311
401.85	1.277
402.20	1.272
402.55	1.295
402.90	1.285
403.26	1.322
403.61	1.316
403.96	1.306
404.31	1.290
404.66	1.270
405.01	1.245
405.36	1.289
405.72	1.298
406.07	1.286
406.42	1.247
406.77	1.277
407.12	1.265
407.47	1.265
407.82	1.273
408.17	1.259
408.53	1.288
408.88	1.290
409.23	1.258
409.58	1.228
409.93	1.240
410.28	1.263
410.63	1.223
410.98	1.215
411.33	1.222
411.68	1.229
412.03	1.262
412.38	1.237
412.73	1.275
413.09	1.297
413.44	1.343
413.79	1.366
414.14	1.374
414.49	1.424
414.84	1.457
415.19	1.465
415.54	1.492
415.89	1.505
416.24	1.550
416.59	1.572
416.94	1.593
417.29	1.614
417.64	1.623
417.99	1.643
418.34	1.658
418.69	1.680
419.04	1.685
419.39	1.690
419.74	1.686
420.09	1.682
420.44	1.677
420.79	1.675
421.14	1.677
421.49	1.690
421.84	1.679
422.19	1.680
422.54	1.650
422.89	1.659
423.24	1.631
423.59	1.625
423.94	1.614
424.29	1.609
424.64	1.604
424.99	1.585
425.34	1.550
425.68	1.536
426.03	1.500
426.38	1.522
426.73	1.513
427.08	1.526
427.43	1.556
427.78	1.562
428.13	1.543
428.48	1.548
428.83	1.549
429.18	1.554
429.53	1.554
429.87	1.552
430.22	1.531
430.57	1.548
430.92	1.552
431.27	1.543
431.62	1.523
431.97	1.539
432.32	1.524
432.67	1.528
433.01	1.526
433.36	1.520
433.71	1.524
434.06	1.512
434.41	1.479
434.76	1.490
435.11	1.489
435.45	1.495
435.80	1.497
436.15	1.506
436.50	1.521
436.85	1.533
437.20	1.544
437.54	1.542
437.89	1.561
438.24	1.572
438.59	1.570
438.94	1.555
439.29	1.560
439.63	1.552
439.98	1.553
440.33	1.537
440.68	1.556
441.03	1.562
441.37	1.576
441.72	1.584
442.07	1.584
442.42	1.576
442.76	1.603
443.11	1.609
443.46	1.622
443.81	1.633
444.16	1.646
444.50	1.639
444.85	1.632
445.20	1.628
445.55	1.624
445.89	1.624
446.24	1.617
446.59	1.589
446.94	1.593
447.28	1.568
447.63	1.545
447.98	1.523
448.32	1.511
448.67	1.504
449.02	1.501
449.37	1.472
449.71	1.487
450.06	1.482
450.41	1.489
450.75	1.486
451.10	1.518
451.45	1.516
451.79	1.512
452.14	1.502
452.49	1.512
452.84	1.495
453.18	1.497
453.53	1.478
453.88	1.486
454.22	1.491
454.57	1.505
454.92	1.495
455.26	1.530
455.61	1.563
455.95	1.580
456.30	1.599
456.65	1.633
456.99	1.664
457.34	1.681
457.69	1.696
458.03	1.720
458.38	1.720
458.73	1.728
459.07	1.718
459.42	1.700
459.76	1.676
460.11	1.651
460.46	1.616
460.80	1.581
461.15	1.561
461.49	1.522
461.84	1.492
462.19	1.455
462.53	1.446
462.88	1.441
463.22	1.435
463.57	1.450
463.91	1.440
464.26	1.470
464.61	1.484
464.95	1.484
465.30	1.500
465.64	1.513
465.99	1.533
466.33	1.525
466.68	1.515
467.02	1.513
467.37	1.509
467.71	1.507
468.06	1.482
468.41	1.471
468.75	1.466
469.10	1.457
469.44	1.428
469.79	1.410
470.13	1.377
470.48	1.363
470.82	1.355
471.17	1.366
471.51	1.360
471.86	1.348
472.20	1.339
472.55	1.330
472.89	1.312
473.23	1.299
473.58	1.288
473.92	1.297
474.27	1.280
474.61	1.268
474.96	1.245
475.30	1.261
475.65	1.254
475.99	1.247
476.34	1.251
476.68	1.264
477.02	1.282
477.37	1.299
477.71	1.324
478.06	1.377
478.40	1.443
478.75	1.517
479.09	1.600
479.43	1.697
479.78	1.787
480.12	1.866
480.47	1.953
480.81	2.023
481.15	2.097
481.50	2.172
481.84	2.245
482.19	2.316
482.53	2.376
482.87	2.414
483.22	2.420
483.56	2.401
483.90	2.361
484.25	2.302
484.59	2.248
484.94	2.198
485.28	2.143
485.62	2.078
485.97	2.003
486.31	1.947
486.65	1.889
487.00	1.865
487.34	1.860
487.68	1.865
488.03	1.874
488.37	1.886
488.71	1.879
489.06	1.866
489.40	1.872
489.74	1.867
490.09	1.849
490.43	1.835
490.77	1.811
491.11	1.778
491.46	1.758
491.80	1.737
492.14	1.691
492.49	1.677
492.83	1.646
493.17	1.595
493.51	1.568
493.86	1.532
494.20	1.512
494.54	1.493
494.88	1.510
495.23	1.523
495.57	1.536
495.91	1.574
496.25	1.591
496.60	1.627
496.94	1.637
497.28	1.647
497.62	1.675
497.97	1.702
498.31	1.726
498.65	1.720
498.99	1.727
499.33	1.750
499.68	1.767
500.02	1.776
500.36	1.791
500.70	1.824
501.04	1.836
501.39	1.861
501.73	1.894
502.07	1.938
502.41	1.982
502.75	2.033
503.09	2.075
503.44	2.113
503.78	2.150
504.12	2.191
504.46	2.240
504.80	2.308
505.14	2.358
505.49	2.408
505.83	2.459
506.17	2.527
506.51	2.568
506.85	2.622
507.19	2.673
507.53	2.729
507.87	2.794
508.22	2.848
508.56	2.895
508.90	2.934
509.24	2.977
509.58	3.019
509.92	3.057
510.26	3.104
510.60	3.146
510.94	3.202
511.28	3.243
511.63	3.277
511.97	3.334
512.31	3.409
512.65	3.484
512.99	3.557
513.33	3.659
513.67	3.764
514.01	3.882
514.35	3.980
514.69	4.079
515.03	4.178
515.37	4.293
515.71	4.396
516.05	4.474
516.39	4.547
516.73	4.636
517.07	4.680
517.41	4.726
517.75	4.760
518.09	4.806
518.43	4.847
518.77	4.900
519.11	4.945
519.45	4.962
519.79	5.019
520.13	5.077
520.47	5.144
520.81	5.225
521.15	5.315
521.49	5.410
521.83	5.503
522.17	5.592
522.51	5.698
522.85	5.819
523.19	5.962
523.53	6.103
523.87	6.262
524.21	6.405
524.55	6.550
524.89	6.676
525.23	6.795
525.57	6.901
525.91	7.008
526.25	7.095
526.58	7.173
526.92	7.245
527.26	7.298
527.60	7.321
527.94	7.346
528.28	7.356
528.62	7.357
528.96	7.362
529.30	7.368
529.64	7.353
529.97	7.347
530.31	7.330
530.65	7.318
530.99	7.315
531.33	7.340
531.67	7.346
532.01	7.360
532.35	7.378
532.68	7.391
533.02	7.393
533.36	7.408
533.70	7.414
534.04	7.418
534.38	7.421
534.71	7.412
535.05	7.411
535.39	7.426
535.73	7.434
536.07	7.445
536.41	7.462
536.74	7.500
537.08	7.535
537.42	7.581
537.76	7.633
538.10	7.678
538.43	7.735
538.77	7.779
539.11	7.818
539.45	7.854
539.79	7.890
540.12	7.918
540.46	7.933
540.80	7.942
541.14	7.930
541.47	7.907
541.81	7.905
542.15	7.883
542.49	7.855
542.82	7.821
543.16	7.796
543.50	7.769
543.84	7.735
544.17	7.692
544.51	7.671
544.85	7.653
545.18	7.648
545.52	7.614
545.86	7.599
546.20	7.600
546.53	7.587
546.87	7.553
547.21	7.546
547.54	7.505
547.88	7.489
548.22	7.470
548.55	7.455
548.89	7.447
549.23	7.445
549.56	7.446
549.90	7.443
550.24	7.447
550.57	7.476
550.91	7.449
551.25	7.482
551.58	7.492
551.92	7.485
552.26	7.490
552.59	7.481
552.93	7.472
553.27	7.459
553.60	7.440
553.94	7.414
554.27	7.389
554.61	7.391
554.95	7.369
555.28	7.348
555.62	7.344
555.95	7.345
556.29	7.341
556.63	7.315
556.96	7.298
557.30	7.276
557.63	7.252
557.97	7.212
558.31	7.172
558.64	7.132
558.98	7.140
559.31	7.116
559.65	7.099
559.98	7.069
560.32	7.044
560.65	6.999
560.99	6.989
561.33	6.978
561.66	6.977
562.00	6.986
562.33	6.975
562.67	6.943
563.00	6.935
563.34	6.913
563.67	6.899
564.01	6.877
564.34	6.863
564.68	6.829
565.01	6.800
565.35	6.772
565.68	6.718
566.02	6.684
566.35	6.631
566.69	6.571
567.02	6.531
567.36	6.459
567.69	6.436
568.03	6.418
568.36	6.364
568.69	6.310
569.03	6.273
569.36	6.238
569.70	6.202
570.03	6.196
570.37	6.149
570.70	6.123
571.04	6.117
571.37	6.070
571.70	6.018
572.04	5.994
572.37	5.978
572.71	5.933
573.04	5.913
573.37	5.883
573.71	5.829
574.04	5.793
574.38	5.731
574.71	5.685
575.04	5.664
575.38	5.620
575.71	5.568
576.05	5.516
576.38	5.477
576.71	5.420
577.05	5.367
577.38	5.304
577.71	5.249
578.05	5.195
578.38	5.151
578.71	5.087
579.05	5.050
579.38	4.996
579.71	4.962
580.05	4.904
580.38	4.866
580.71	4.815
581.05	4.794
581.38	4.784
581.71	4.766
582.05	4.727
582.38	4.714
582.71	4.691
583.04	4.699
583.38	4.672
583.71	4.671
584.04	4.639
584.38	4.651
584.71	4.654
585.04	4.665
585.37	4.671
585.71	4.674
586.04	4.651
586.37	4.648
586.70	4.634
587.04	4.636
587.37	4.647
587.70	4.660
588.03	4.639
588.37	4.645
588.70	4.615
589.03	4.593
589.36	4.586
589.69	4.570
590.03	4.559
590.36	4.522
590.69	4.482
591.02	4.448
591.35	4.414
591.69	4.417
592.02	4.392
592.35	4.384
592.68	4.381
593.01	4.364
593.35	4.359
593.68	4.348
594.01	4.355
594.34	4.357
594.67	4.353
595.00	4.354
595.34	4.314
595.67	4.262
596.00	4.243
596.33	4.198
596.66	4.159
596.99	4.120
597.32	4.068
597.65	4.024
597.99	3.959
598.32	3.919
598.65	3.855
598.98	3.831
599.31	3.821
599.64	3.837
599.97	3.834
600.30	3.840
600.63	3.851
600.96	3.872
601.30	3.874
601.63	3.923
601.96	3.920
602.29	3.939
602.62	3.923
602.95	3.894
603.28	3.842
603.61	3.799
603.94	3.754
604.27	3.723
604.60	3.668
604.93	3.661
605.26	3.601
605.59	3.567
605.92	3.540
606.25	3.516
606.58	3.520
606.91	3.487
607.24	3.488
607.57	3.469
607.90	3.444
608.23	3.426
608.56	3.377
608.89	3.335
609.22	3.288
609.55	3.225
609.88	3.167
610.21	3.109
610.54	3.058
610.87	2.992
611.20	2.946
611.53	2.872
611.86	2.825
612.19	2.755
612.52	2.697
612.85	2.704
613.18	2.678
613.51	2.624
613.84	2.588
614.17	2.576
614.49	2.569
614.82	2.523
615.15	2.520
615.48	2.493
615.81	2.476
616.14	2.485
616.47	2.407
616.80	2.377
617.13	2.372
617.46	2.334
617.78	2.292
618.11	2.274
618.44	2.254
618.77	2.223
619.10	2.190
619.43	2.202
619.76	2.147
620.09	2.147
620.41	2.136
620.74	2.157
621.07	2.189
621.40	2.197
621.73	2.166
622.06	2.202
622.38	2.220
622.71	2.254
623.04	2.261
623.37	2.309
623.70	2.329
624.02	2.366
624.35	2.399
624.68	2.399
625.01	2.424
625.34	2.455
625.66	2.468
625.99	2.498
626.32	2.499
626.65	2.512
626.98	2.479
627.30	2.481
627.63	2.436
627.96	2.378
628.29	2.329
628.61	2.286
628.94	2.266
629.27	2.212
629.60	2.132
629.92	2.126
630.25	2.050
630.58	2.059
630.91	2.023
631.23	2.013
631.56	1.998
631.89	1.986
632.21	1.956
632.54	1.937
632.87	1.930
633.19	1.910
633.52	1.836
633.85	1.830
634.18	1.766
634.50	1.700
634.83	1.653
635.16	1.584
635.48	1.515
635.81	1.472
636.14	1.401
636.46	1.319
636.79	1.276
637.11	1.243
637.44	1.156
637.77	1.109
638.09	1.057
638.42	0.967
638.75	0.921
639.07	0.901
639.40	0.842
639.73	0.779
640.05	0.761
640.38	0.750
640.70	0.656
641.03	0.632
641.36	0.593
641.68	0.580
642.01	0.606
642.33	0.591
642.66	0.572
642.98	0.568
643.31	0.557
643.64	0.529
643.96	0.476
644.29	0.496
644.61	0.506
644.94	0.506
645.26	0.519
645.59	0.522
645.91	0.548
646.24	0.557
646.56	0.532
646.89	0.522
647.22	0.522
647.54	0.555
647.87	0.575
648.19	0.541
648.52	0.540
648.84	0.521
649.17	0.490
649.49	0.486
649.82	0.466
650.14	0.488
650.47	0.486
650.79	0.490
651.11	0.451
651.44	0.454
651.76	0.450
652.09	0.492
652.41	0.505
652.74	0.519
653.06	0.487
653.39	0.521
653.71	0.544
654.04	0.565
654.36	0.578
654.68	0.633
655.01	0.629
655.33	0.716
655.66	0.702
655.98	0.740
656.30	0.737
656.63	0.786
