OOIBase32 Version 2.0.0.6 Data File
++++++++++++++++++++++++++++++++++++
Date: 01-23-2012, 23:16:02
User: Valued Ocean Optics Customer
Spectrometer Serial Number: USB2E2917
Spectrometer Channel: Master
Integration Time (msec): 5
Spectra Averaged: 10
Boxcar Smoothing: 5
Correct for Electrical Dark: Enabled
Time Normalized: Disabled
Dual-beam Reference: Disabled
Reference Channel: Master
Temperature: Not acquired
Spectrometer Type: S2000
ADC Type: USB2000
Number of Pixels in File: 2048
Graph Title: 
>>>>>Begin Spectral Data<<<<<
180.30	0.000
180.67	0.000
181.03	-77.565
181.40	525.931
181.77	494.113
182.14	31.667
182.51	-289.056
182.88	46.951
183.25	3.188
183.62	80.490
183.99	153.196
184.36	74.641
184.73	-63.920
185.10	-40.428
185.46	-183.812
185.83	-125.063
186.20	389.534
186.57	296.584
186.94	34.937
187.31	78.023
187.68	166.609
188.05	70.998
188.42	137.768
188.78	302.057
189.15	997.616
189.52	-255.440
189.89	-56.730
190.26	-15.559
190.63	3.792
191.00	18.287
191.37	30.326
191.73	32.336
192.10	30.571
192.47	41.074
192.84	42.497
193.21	58.852
193.58	61.648
193.94	75.102
194.31	74.083
194.68	66.855
195.05	49.190
195.42	52.330
195.79	41.795
196.15	36.208
196.52	29.774
196.89	18.962
197.26	0.371
197.63	10.302
198.00	2.456
198.36	-21.077
198.73	-27.044
199.10	-22.074
199.47	-18.097
199.84	-16.196
200.20	-7.574
200.57	2.959
200.94	-17.012
201.31	-29.280
201.68	-40.816
202.04	-50.691
202.41	-39.651
202.78	-34.623
203.15	-34.438
203.51	-26.579
203.88	-26.742
204.25	-24.783
204.62	-56.889
204.98	-46.518
205.35	-25.772
205.72	-21.564
206.09	-16.190
206.46	-65.487
206.82	-52.206
207.19	-75.268
207.56	-164.407
207.92	-154.373
208.29	-168.383
208.66	-99.010
209.03	-68.464
209.39	-48.562
209.76	-47.055
210.13	-55.422
210.50	-28.459
210.86	-19.753
211.23	-3.092
211.60	23.389
211.96	27.952
212.33	16.720
212.70	-3.903
213.07	-12.142
213.43	-53.143
213.80	-49.876
214.17	-27.350
214.53	-13.859
214.90	-14.620
215.27	-11.430
215.63	-13.560
216.00	-1.495
216.37	8.787
216.74	9.041
217.10	6.536
217.47	12.262
217.84	11.970
218.20	3.179
218.57	0.530
218.94	-3.446
219.30	-8.761
219.67	-14.655
220.04	-18.289
220.40	-24.168
220.77	-25.554
221.13	-19.252
221.50	-15.080
221.87	-13.211
222.23	-15.696
222.60	-23.018
222.97	-23.066
223.33	-18.712
223.70	-15.842
224.07	-17.712
224.43	-16.752
224.80	-15.519
225.16	-17.160
225.53	-16.440
225.90	-16.355
226.26	-11.564
226.63	-8.578
226.99	-6.466
227.36	-5.402
227.73	-3.237
228.09	-1.873
228.46	1.063
228.82	4.013
229.19	5.463
229.56	5.714
229.92	7.743
230.29	6.697
230.65	5.815
231.02	5.577
231.38	4.526
231.75	3.288
232.12	1.957
232.48	-1.109
232.85	-4.087
233.21	-5.272
233.58	-6.509
233.94	-7.333
234.31	-6.696
234.68	-5.465
235.04	-4.890
235.41	-3.038
235.77	-1.255
236.14	-0.058
236.50	1.597
236.87	2.857
237.23	3.285
237.60	3.222
237.96	2.514
238.33	1.835
238.69	1.152
239.06	0.548
239.42	0.552
239.79	-0.425
240.15	-0.365
240.52	-0.153
240.88	0.257
241.25	0.330
241.61	0.753
241.98	0.479
242.34	0.477
242.71	0.742
243.07	0.933
243.44	0.891
243.80	0.772
244.17	0.656
244.53	0.371
244.90	0.240
245.26	0.126
245.63	-0.069
245.99	-0.010
246.36	-0.039
246.72	0.165
247.09	-0.116
247.45	0.051
247.81	0.487
248.18	0.341
248.54	0.765
248.91	0.323
249.27	0.299
249.64	0.497
250.00	0.831
250.36	0.669
250.73	0.507
251.09	0.979
251.46	0.788
251.82	0.399
252.19	0.430
252.55	-0.093
252.91	0.370
253.28	0.245
253.64	-0.335
254.01	-0.532
254.37	0.056
254.73	0.490
255.10	0.932
255.46	1.319
255.83	1.606
256.19	1.696
256.55	1.553
256.92	1.633
257.28	1.830
257.65	2.211
258.01	2.379
258.37	2.404
258.74	2.175
259.10	1.897
259.46	1.610
259.83	1.392
260.19	1.332
260.55	1.534
260.92	1.408
261.28	1.271
261.64	1.105
262.01	1.113
262.37	1.044
262.73	1.270
263.10	1.262
263.46	1.218
263.82	1.249
264.19	1.438
264.55	0.947
264.91	0.944
265.28	0.984
265.64	0.951
266.00	0.904
266.37	0.830
266.73	0.705
267.09	0.818
267.46	0.737
267.82	0.635
268.18	0.662
268.54	0.973
268.91	1.056
269.27	0.961
269.63	1.156
270.00	0.886
270.36	0.838
270.72	0.911
271.08	0.809
271.45	0.957
271.81	1.022
272.17	1.030
272.53	0.923
272.90	0.978
273.26	1.134
273.62	1.061
273.98	1.268
274.35	1.416
274.71	1.417
275.07	1.648
275.43	1.644
275.80	1.479
276.16	1.205
276.52	1.249
276.88	1.167
277.25	0.906
277.61	0.695
277.97	0.609
278.33	0.575
278.69	0.449
279.06	0.394
279.42	0.387
279.78	0.685
280.14	0.889
280.50	1.048
280.87	1.152
281.23	1.319
281.59	1.446
281.95	1.413
282.31	1.367
282.68	1.168
283.04	1.000
283.40	1.115
283.76	1.144
284.12	1.345
284.48	1.360
284.85	1.297
285.21	1.344
285.57	1.288
285.93	1.316
286.29	1.273
286.65	1.571
287.02	1.963
287.38	1.916
287.74	1.842
288.10	1.538
288.46	1.393
288.82	1.268
289.18	1.076
289.54	1.025
289.91	1.074
290.27	1.197
290.63	1.293
290.99	0.966
291.35	0.942
291.71	1.129
292.07	1.183
292.43	1.138
292.79	1.189
293.16	1.256
293.52	1.408
293.88	1.386
294.24	1.339
294.60	1.205
294.96	1.282
295.32	1.370
295.68	1.296
296.04	1.348
296.40	1.492
296.76	1.559
297.12	1.638
297.49	1.596
297.85	1.624
298.21	1.640
298.57	1.507
298.93	1.456
299.29	1.188
299.65	1.166
300.01	1.268
300.37	1.265
300.73	1.485
301.09	1.400
301.45	1.436
301.81	1.461
302.17	1.411
302.53	1.386
302.89	1.386
303.25	1.593
303.61	1.584
303.97	1.390
304.33	1.353
304.69	1.331
305.05	1.384
305.41	1.278
305.77	1.247
306.13	1.192
306.49	1.205
306.85	1.379
307.21	1.389
307.57	1.400
307.93	1.446
308.29	1.525
308.65	1.441
309.01	1.415
309.37	1.452
309.73	1.472
310.09	1.611
310.45	1.802
310.81	1.698
311.17	1.685
311.53	1.661
311.89	1.724
312.25	1.606
312.61	1.459
312.96	1.527
313.32	1.653
313.68	1.633
314.04	1.564
314.40	1.521
314.76	1.547
315.12	1.531
315.48	1.656
315.84	1.612
316.20	1.672
316.56	1.785
316.92	1.661
317.27	1.477
317.63	1.443
317.99	1.414
318.35	1.375
318.71	1.318
319.07	1.366
319.43	1.379
319.79	1.451
320.15	1.502
320.50	1.488
320.86	1.568
321.22	1.603
321.58	1.685
321.94	1.627
322.30	1.557
322.66	1.552
323.01	1.495
323.37	1.395
323.73	1.303
324.09	1.230
324.45	1.296
324.81	1.303
325.17	1.352
325.52	1.228
325.88	1.260
326.24	1.414
326.60	1.477
326.96	1.461
327.31	1.408
327.67	1.362
328.03	1.416
328.39	1.308
328.75	1.255
329.11	1.303
329.46	1.352
329.82	1.398
330.18	1.244
330.54	1.180
330.90	1.175
331.25	1.249
331.61	1.378
331.97	1.391
332.33	1.473
332.68	1.504
333.04	1.448
333.40	1.375
333.76	1.325
334.11	1.356
334.47	1.397
334.83	1.342
335.19	1.309
335.54	1.283
335.90	1.227
336.26	1.199
336.62	1.055
336.97	0.989
337.33	1.053
337.69	1.102
338.05	1.048
338.40	1.056
338.76	1.065
339.12	1.169
339.48	1.171
339.83	1.243
340.19	1.299
340.55	1.470
340.90	1.504
341.26	1.427
341.62	1.359
341.97	1.387
342.33	1.394
342.69	1.500
343.04	1.386
343.40	1.265
343.76	1.122
344.12	1.081
344.47	1.116
344.83	1.215
345.19	1.296
345.54	1.347
345.90	1.335
346.26	1.345
346.61	1.346
346.97	1.419
347.32	1.556
347.68	1.623
348.04	1.624
348.39	1.571
348.75	1.506
349.11	1.491
349.46	1.480
349.82	1.584
350.18	1.537
350.53	1.481
350.89	1.448
351.24	1.416
351.60	1.365
351.96	1.371
352.31	1.360
352.67	1.376
353.02	1.401
353.38	1.423
353.74	1.413
354.09	1.401
354.45	1.457
354.80	1.424
355.16	1.470
355.52	1.552
355.87	1.532
356.23	1.576
356.58	1.576
356.94	1.591
357.29	1.634
357.65	1.645
358.00	1.662
358.36	1.666
358.72	1.720
359.07	1.687
359.43	1.682
359.78	1.711
360.14	1.729
360.49	1.754
360.85	1.759
361.20	1.711
361.56	1.635
361.91	1.671
362.27	1.647
362.62	1.689
362.98	1.695
363.33	1.638
363.69	1.634
364.04	1.636
364.40	1.657
364.75	1.719
365.11	1.764
365.46	1.785
365.82	1.810
366.17	1.854
366.53	1.837
366.88	1.888
367.24	1.985
367.59	2.000
367.95	1.977
368.30	1.942
368.66	1.911
369.01	1.864
369.37	1.920
369.72	1.936
370.08	1.955
370.43	1.952
370.78	1.921
371.14	1.877
371.49	1.920
371.85	1.955
372.20	1.971
372.56	1.977
372.91	2.040
373.26	2.023
373.62	2.024
373.97	2.065
374.33	2.050
374.68	2.086
375.03	2.152
375.39	2.098
375.74	2.075
376.10	2.095
376.45	2.109
376.80	2.121
377.16	2.141
377.51	2.140
377.87	2.094
378.22	2.102
378.57	2.120
378.93	2.154
379.28	2.241
379.63	2.271
379.99	2.302
380.34	2.331
380.70	2.347
381.05	2.380
381.40	2.381
381.76	2.463
382.11	2.509
382.46	2.553
382.82	2.591
383.17	2.608
383.52	2.640
383.88	2.670
384.23	2.657
384.58	2.661
384.94	2.655
385.29	2.720
385.64	2.721
385.99	2.772
386.35	2.796
386.70	2.796
387.05	2.787
387.41	2.804
387.76	2.798
388.11	2.822
388.47	2.842
388.82	2.882
389.17	2.902
389.52	2.937
389.88	2.974
390.23	2.972
390.58	3.004
390.93	3.058
391.29	3.113
391.64	3.166
391.99	3.245
392.34	3.322
392.70	3.357
393.05	3.400
393.40	3.415
393.75	3.396
394.11	3.455
394.46	3.426
394.81	3.439
395.16	3.399
395.52	3.406
395.87	3.407
396.22	3.412
396.57	3.409
396.92	3.377
397.28	3.385
397.63	3.406
397.98	3.381
398.33	3.421
398.68	3.402
399.04	3.429
399.39	3.439
399.74	3.405
400.09	3.381
400.44	3.422
400.80	3.427
401.15	3.427
401.50	3.410
401.85	3.416
402.20	3.406
402.55	3.430
402.90	3.428
403.26	3.425
403.61	3.441
403.96	3.458
404.31	3.442
404.66	3.455
405.01	3.465
405.36	3.488
405.72	3.494
406.07	3.524
406.42	3.505
406.77	3.526
407.12	3.556
407.47	3.573
407.82	3.600
408.17	3.607
408.53	3.619
408.88	3.599
409.23	3.607
409.58	3.598
409.93	3.600
410.28	3.631
410.63	3.631
410.98	3.606
411.33	3.609
411.68	3.598
412.03	3.625
412.38	3.630
412.73	3.683
413.09	3.718
413.44	3.737
413.79	3.747
414.14	3.780
414.49	3.822
414.84	3.857
415.19	3.901
415.54	3.938
415.89	3.943
416.24	3.968
416.59	3.980
416.94	4.001
417.29	4.043
417.64	4.067
417.99	4.081
418.34	4.086
418.69	4.118
419.04	4.114
419.39	4.116
419.74	4.138
420.09	4.160
420.44	4.179
420.79	4.175
421.14	4.169
421.49	4.182
421.84	4.185
422.19	4.210
422.54	4.200
422.89	4.206
423.24	4.209
423.59	4.196
423.94	4.179
424.29	4.168
424.64	4.177
424.99	4.171
425.34	4.134
425.68	4.130
426.03	4.094
426.38	4.084
426.73	4.086
427.08	4.061
427.43	4.071
427.78	4.080
428.13	4.065
428.48	4.046
428.83	4.062
429.18	4.089
429.53	4.080
429.87	4.085
430.22	4.084
430.57	4.087
430.92	4.109
431.27	4.135
431.62	4.128
431.97	4.118
432.32	4.132
432.67	4.121
433.01	4.107
433.36	4.107
433.71	4.095
434.06	4.095
434.41	4.091
434.76	4.096
435.11	4.079
435.45	4.089
435.80	4.123
436.15	4.141
436.50	4.179
436.85	4.210
437.20	4.229
437.54	4.252
437.89	4.282
438.24	4.297
438.59	4.316
438.94	4.318
439.29	4.324
439.63	4.332
439.98	4.335
440.33	4.333
440.68	4.354
441.03	4.376
441.37	4.408
441.72	4.413
442.07	4.431
442.42	4.453
442.76	4.500
443.11	4.548
443.46	4.591
443.81	4.622
444.16	4.661
444.50	4.686
444.85	4.710
445.20	4.719
445.55	4.750
445.89	4.791
446.24	4.807
446.59	4.806
446.94	4.813
447.28	4.816
447.63	4.837
447.98	4.830
448.32	4.833
448.67	4.847
449.02	4.866
449.37	4.859
449.71	4.886
450.06	4.889
450.41	4.921
450.75	4.933
451.10	4.933
451.45	4.931
451.79	4.941
452.14	4.949
452.49	4.951
452.84	4.977
453.18	4.997
453.53	4.974
453.88	4.983
454.22	4.989
454.57	5.019
454.92	5.037
455.26	5.066
455.61	5.116
455.95	5.144
456.30	5.164
456.65	5.194
456.99	5.224
457.34	5.248
457.69	5.289
458.03	5.315
458.38	5.330
458.73	5.361
459.07	5.371
459.42	5.345
459.76	5.346
460.11	5.331
460.46	5.304
460.80	5.284
461.15	5.285
461.49	5.256
461.84	5.238
462.19	5.209
462.53	5.187
462.88	5.173
463.22	5.179
463.57	5.172
463.91	5.188
464.26	5.195
464.61	5.207
464.95	5.190
465.30	5.191
465.64	5.197
465.99	5.205
466.33	5.210
466.68	5.213
467.02	5.227
467.37	5.218
467.71	5.205
468.06	5.216
468.41	5.206
468.75	5.220
469.10	5.227
469.44	5.219
469.79	5.205
470.13	5.180
470.48	5.170
470.82	5.161
471.17	5.170
471.51	5.177
471.86	5.161
472.20	5.167
472.55	5.164
472.89	5.170
473.23	5.186
473.58	5.209
473.92	5.213
474.27	5.228
474.61	5.230
474.96	5.242
475.30	5.259
475.65	5.271
475.99	5.266
476.34	5.280
476.68	5.274
477.02	5.277
477.37	5.289
477.71	5.336
478.06	5.378
478.40	5.458
478.75	5.541
479.09	5.640
479.43	5.764
479.78	5.918
480.12	6.060
480.47	6.220
480.81	6.382
481.15	6.531
481.50	6.687
481.84	6.851
482.19	7.003
482.53	7.147
482.87	7.249
483.22	7.274
483.56	7.221
483.90	7.124
484.25	6.991
484.59	6.843
484.94	6.713
485.28	6.592
485.62	6.462
485.97	6.325
486.31	6.203
486.65	6.111
487.00	6.085
487.34	6.108
487.68	6.163
488.03	6.238
488.37	6.315
488.71	6.366
489.06	6.388
489.40	6.407
489.74	6.416
490.09	6.428
490.43	6.430
490.77	6.422
491.11	6.421
491.46	6.415
491.80	6.411
492.14	6.404
492.49	6.418
492.83	6.414
493.17	6.406
493.51	6.420
493.86	6.432
494.20	6.471
494.54	6.513
494.88	6.575
495.23	6.650
495.57	6.713
495.91	6.795
496.25	6.853
496.60	6.927
496.94	6.993
497.28	7.062
497.62	7.130
497.97	7.195
498.31	7.264
498.65	7.312
498.99	7.368
499.33	7.463
499.68	7.528
500.02	7.610
500.36	7.686
500.70	7.763
501.04	7.846
501.39	7.923
501.73	8.017
502.07	8.121
502.41	8.237
502.75	8.361
503.09	8.447
503.44	8.556
503.78	8.665
504.12	8.767
504.46	8.894
504.80	9.030
505.14	9.162
505.49	9.277
505.83	9.384
506.17	9.497
506.51	9.605
506.85	9.725
507.19	9.842
507.53	9.954
507.87	10.074
508.22	10.188
508.56	10.282
508.90	10.394
509.24	10.497
509.58	10.627
509.92	10.740
510.26	10.855
510.60	10.970
510.94	11.090
511.28	11.203
511.63	11.320
511.97	11.416
512.31	11.547
512.65	11.666
512.99	11.813
513.33	11.984
513.67	12.153
514.01	12.314
514.35	12.478
514.69	12.639
515.03	12.800
515.37	12.958
515.71	13.110
516.05	13.253
516.39	13.374
516.73	13.503
517.07	13.588
517.41	13.668
517.75	13.742
518.09	13.817
518.43	13.876
518.77	13.942
519.11	14.015
519.45	14.077
519.79	14.166
520.13	14.252
520.47	14.342
520.81	14.438
521.15	14.577
521.49	14.704
521.83	14.838
522.17	14.986
522.51	15.143
522.85	15.309
523.19	15.522
523.53	15.731
523.87	15.970
524.21	16.208
524.55	16.435
524.89	16.644
525.23	16.858
525.57	17.043
525.91	17.215
526.25	17.357
526.58	17.505
526.92	17.621
527.26	17.679
527.60	17.725
527.94	17.747
528.28	17.766
528.62	17.754
528.96	17.734
529.30	17.704
529.64	17.674
529.97	17.656
530.31	17.605
530.65	17.581
530.99	17.601
531.33	17.628
531.67	17.651
532.01	17.662
532.35	17.680
532.68	17.710
533.02	17.723
533.36	17.723
533.70	17.722
534.04	17.724
534.38	17.726
534.71	17.718
535.05	17.714
535.39	17.719
535.73	17.734
536.07	17.758
536.41	17.772
536.74	17.816
537.08	17.874
537.42	17.946
537.76	18.049
538.10	18.118
538.43	18.206
538.77	18.284
539.11	18.344
539.45	18.410
539.79	18.470
540.12	18.522
540.46	18.554
540.80	18.561
541.14	18.555
541.47	18.514
541.81	18.488
542.15	18.457
542.49	18.412
542.82	18.385
543.16	18.337
543.50	18.295
543.84	18.249
544.17	18.224
544.51	18.213
544.85	18.201
545.18	18.194
545.52	18.203
545.86	18.190
546.20	18.200
546.53	18.188
546.87	18.180
547.21	18.151
547.54	18.152
547.88	18.149
548.22	18.140
548.55	18.131
548.89	18.159
549.23	18.143
549.56	18.142
549.90	18.138
550.24	18.146
550.57	18.154
550.91	18.153
551.25	18.156
551.58	18.155
551.92	18.171
552.26	18.162
552.59	18.147
552.93	18.161
553.27	18.151
553.60	18.139
553.94	18.100
554.27	18.091
554.61	18.128
554.95	18.114
555.28	18.107
555.62	18.094
555.95	18.120
556.29	18.120
556.63	18.095
556.96	18.110
557.30	18.095
557.63	18.108
557.97	18.086
558.31	18.029
558.64	17.990
558.98	17.956
559.31	17.935
559.65	17.901
559.98	17.868
560.32	17.838
560.65	17.809
560.99	17.779
561.33	17.736
561.66	17.718
562.00	17.717
562.33	17.716
562.67	17.731
563.00	17.709
563.34	17.707
563.67	17.702
564.01	17.679
564.34	17.653
564.68	17.639
565.01	17.657
565.35	17.655
565.68	17.626
566.02	17.574
566.35	17.512
566.69	17.453
567.02	17.432
567.36	17.358
567.69	17.309
568.03	17.272
568.36	17.218
568.69	17.146
569.03	17.098
569.36	17.046
569.70	16.996
570.03	16.976
570.37	16.942
570.70	16.867
571.04	16.844
571.37	16.799
571.70	16.765
572.04	16.728
572.37	16.689
572.71	16.619
573.04	16.603
573.37	16.590
573.71	16.540
574.04	16.502
574.38	16.458
574.71	16.409
575.04	16.370
575.38	16.303
575.71	16.240
576.05	16.186
576.38	16.148
576.71	16.066
577.05	15.983
577.38	15.915
577.71	15.838
578.05	15.759
578.38	15.705
578.71	15.671
579.05	15.633
579.38	15.596
579.71	15.558
580.05	15.507
580.38	15.489
580.71	15.478
581.05	15.431
581.38	15.413
581.71	15.387
582.05	15.352
582.38	15.308
582.71	15.253
583.04	15.231
583.38	15.166
583.71	15.139
584.04	15.120
584.38	15.108
584.71	15.099
585.04	15.090
585.37	15.095
585.71	15.109
586.04	15.093
586.37	15.107
586.70	15.069
587.04	15.101
587.37	15.083
587.70	15.052
588.03	15.013
588.37	15.008
588.70	15.007
589.03	14.990
589.36	14.951
589.69	14.923
590.03	14.906
590.36	14.896
590.69	14.875
591.02	14.867
591.35	14.823
591.69	14.827
592.02	14.791
592.35	14.740
592.68	14.719
593.01	14.707
593.35	14.702
593.68	14.668
594.01	14.669
594.34	14.636
594.67	14.589
595.00	14.564
595.34	14.508
595.67	14.480
596.00	14.477
596.33	14.432
596.66	14.362
596.99	14.304
597.32	14.258
597.65	14.207
597.99	14.156
598.32	14.118
598.65	14.084
598.98	14.055
599.31	14.022
599.64	13.994
599.97	13.988
600.30	13.989
600.63	14.003
600.96	14.014
601.30	14.025
601.63	14.029
601.96	14.037
602.29	14.035
602.62	14.056
602.95	14.059
603.28	14.037
603.61	14.017
603.94	13.995
604.27	13.973
604.60	13.937
604.93	13.907
605.26	13.878
605.59	13.838
605.92	13.842
606.25	13.783
606.58	13.762
606.91	13.698
607.24	13.671
607.57	13.670
607.90	13.632
608.23	13.565
608.56	13.496
608.89	13.445
609.22	13.408
609.55	13.321
609.88	13.253
610.21	13.186
610.54	13.147
610.87	13.072
611.20	12.985
611.53	12.916
611.86	12.895
612.19	12.849
612.52	12.808
612.85	12.766
613.18	12.713
613.51	12.661
613.84	12.578
614.17	12.545
614.49	12.537
614.82	12.465
615.15	12.452
615.48	12.422
615.81	12.370
616.14	12.335
616.47	12.284
616.80	12.262
617.13	12.248
617.46	12.207
617.78	12.187
618.11	12.147
618.44	12.155
618.77	12.088
619.10	12.053
619.43	12.037
619.76	11.950
620.09	11.936
620.41	11.895
620.74	11.894
621.07	11.930
621.40	11.912
621.73	11.875
622.06	11.875
622.38	11.896
622.71	11.915
623.04	11.960
623.37	12.040
623.70	12.049
624.02	12.085
624.35	12.089
624.68	12.121
625.01	12.140
625.34	12.182
625.66	12.185
625.99	12.202
626.32	12.197
626.65	12.179
626.98	12.160
627.30	12.194
627.63	12.183
627.96	12.141
628.29	12.076
628.61	12.054
628.94	12.006
629.27	11.973
629.60	11.923
629.92	11.888
630.25	11.837
630.58	11.798
630.91	11.742
631.23	11.702
631.56	11.702
631.89	11.692
632.21	11.669
632.54	11.663
632.87	11.610
633.19	11.588
633.52	11.525
633.85	11.504
634.18	11.454
634.50	11.385
634.83	11.314
635.16	11.226
635.48	11.119
635.81	11.010
636.14	10.889
636.46	10.826
636.79	10.732
637.11	10.649
637.44	10.508
637.77	10.410
638.09	10.309
638.42	10.210
638.75	10.107
639.07	10.044
639.40	9.964
639.73	9.855
640.05	9.724
640.38	9.614
640.70	9.512
641.03	9.410
641.36	9.290
641.68	9.195
642.01	9.118
642.33	9.046
642.66	8.927
642.98	8.841
643.31	8.798
643.64	8.754
643.96	8.678
644.29	8.604
644.61	8.578
644.94	8.546
645.26	8.504
645.59	8.465
645.91	8.453
646.24	8.431
646.56	8.395
646.89	8.366
647.22	8.286
647.54	8.261
647.87	8.261
648.19	8.195
648.52	8.173
648.84	8.160
