OOIBase32 Version 2.0.0.6 Data File
++++++++++++++++++++++++++++++++++++
Date: 01-23-2012, 23:17:59
User: Valued Ocean Optics Customer
Spectrometer Serial Number: USB2E2917
Spectrometer Channel: Master
Integration Time (msec): 5
Spectra Averaged: 10
Boxcar Smoothing: 5
Correct for Electrical Dark: Enabled
Time Normalized: Disabled
Dual-beam Reference: Disabled
Reference Channel: Master
Temperature: Not acquired
Spectrometer Type: S2000
ADC Type: USB2000
Number of Pixels in File: 2048
Graph Title: 
>>>>>Begin Spectral Data<<<<<
180.30	0.000
180.67	0.000
181.03	-36.107
181.40	279.582
181.77	8454.052
182.14	7.366
182.51	-654.436
182.88	24.252
183.25	116.749
183.62	86.193
183.99	623.719
184.36	-94.347
184.73	-62.470
185.10	100.307
185.46	29.653
185.83	315.759
186.20	62.585
186.57	72.833
186.94	66.382
187.31	40.945
187.68	39.970
188.05	36.420
188.42	18.193
188.78	-19.195
189.15	92.620
189.52	56.379
189.89	56.222
190.26	66.683
190.63	60.609
191.00	76.604
191.37	59.287
191.73	70.603
192.10	64.687
192.47	55.083
192.84	48.401
193.21	61.927
193.58	49.083
193.94	43.090
194.31	35.599
194.68	26.066
195.05	9.961
195.42	10.514
195.79	-2.176
196.15	-6.427
196.52	-0.666
196.89	14.196
197.26	0.573
197.63	31.718
198.00	33.833
198.36	32.434
198.73	7.454
199.10	9.138
199.47	14.743
199.84	20.677
200.20	8.276
200.57	19.301
200.94	8.139
201.31	11.408
201.68	-6.471
202.04	3.706
202.41	1.122
202.78	4.127
203.15	18.828
203.51	20.428
203.88	20.453
204.25	34.495
204.62	16.978
204.98	22.024
205.35	11.922
205.72	20.477
206.09	1.578
206.46	-20.258
206.82	-10.719
207.19	-35.304
207.56	-76.359
207.92	-62.548
208.29	-89.493
208.66	-48.344
209.03	-41.012
209.39	-17.119
209.76	-16.891
210.13	-33.910
210.50	-16.416
210.86	-3.285
211.23	9.594
211.60	27.296
211.96	12.005
212.33	24.086
212.70	13.592
213.07	11.307
213.43	-10.881
213.80	2.855
214.17	20.618
214.53	20.008
214.90	12.753
215.27	17.264
215.63	15.113
216.00	22.247
216.37	16.350
216.74	11.044
217.10	6.617
217.47	12.455
217.84	10.721
218.20	8.990
218.57	9.274
218.94	9.035
219.30	3.402
219.67	-2.228
220.04	-4.433
220.40	1.020
220.77	-1.698
221.13	4.287
221.50	-0.195
221.87	0.263
222.23	-6.516
222.60	-12.623
222.97	-16.695
223.33	-9.792
223.70	-6.457
224.07	-5.283
224.43	-9.058
224.80	-4.082
225.16	-7.648
225.53	-4.303
225.90	-5.963
226.26	-2.673
226.63	-0.263
226.99	1.790
227.36	0.217
227.73	1.568
228.09	1.273
228.46	3.568
228.82	4.504
229.19	6.468
229.56	5.476
229.92	5.487
230.29	3.545
230.65	3.447
231.02	1.705
231.38	1.341
231.75	0.248
232.12	0.580
232.48	-2.954
232.85	-5.076
233.21	-7.092
233.58	-7.777
233.94	-6.337
234.31	-5.073
234.68	-5.643
235.04	-5.042
235.41	-4.376
235.77	-2.847
236.14	-2.871
236.50	-0.544
236.87	0.169
237.23	1.135
237.60	-0.034
237.96	-0.557
238.33	-1.111
238.69	-1.513
239.06	-1.220
239.42	-0.935
239.79	-2.197
240.15	-2.955
240.52	-3.226
240.88	-2.692
241.25	-2.910
241.61	-2.075
241.98	-2.269
242.34	-1.906
242.71	-1.300
243.07	-0.760
243.44	-0.957
243.80	-0.622
244.17	-0.010
244.53	-0.071
244.90	-0.292
245.26	-0.125
245.63	-0.361
245.99	-0.265
246.36	-0.369
246.72	-0.004
247.09	-0.384
247.45	-0.267
247.81	-0.089
248.18	-0.256
248.54	-0.098
248.91	-0.303
249.27	-0.285
249.64	0.219
250.00	0.390
250.36	0.744
250.73	-0.354
251.09	-0.145
251.46	-0.440
251.82	-0.862
252.19	-0.936
252.55	-1.306
252.91	-1.077
253.28	-1.345
253.64	-2.305
254.01	-1.810
254.37	-1.731
254.73	-0.902
255.10	-0.686
255.46	0.014
255.83	0.214
256.19	0.337
256.55	0.119
256.92	0.215
257.28	0.253
257.65	0.678
258.01	0.547
258.37	0.441
258.74	0.232
259.10	0.097
259.46	-0.179
259.83	-0.107
260.19	-0.191
260.55	0.122
260.92	-0.176
261.28	0.074
261.64	-0.104
262.01	-0.135
262.37	-0.070
262.73	0.249
263.10	0.442
263.46	0.481
263.82	0.120
264.19	0.139
264.55	-0.402
264.91	-0.220
265.28	-0.687
265.64	-0.625
266.00	-0.763
266.37	-0.843
266.73	-1.045
267.09	-0.941
267.46	-0.958
267.82	-1.064
268.18	-0.981
268.54	-0.481
268.91	-0.502
269.27	-0.364
269.63	-0.189
270.00	-0.194
270.36	-0.312
270.72	-0.259
271.08	-0.455
271.45	-0.451
271.81	-0.281
272.17	-0.303
272.53	-0.379
272.90	-0.156
273.26	0.017
273.62	-0.173
273.98	-0.193
274.35	-0.243
274.71	-0.325
275.07	-0.337
275.43	-0.447
275.80	-0.560
276.16	-0.718
276.52	-0.773
276.88	-0.928
277.25	-1.147
277.61	-1.138
277.97	-1.053
278.33	-0.774
278.69	-0.942
279.06	-1.118
279.42	-0.850
279.78	-0.540
280.14	-0.346
280.50	-0.448
280.87	-0.504
281.23	-0.512
281.59	-0.434
281.95	-0.358
282.31	-0.179
282.68	-0.104
283.04	0.068
283.40	0.073
283.76	0.023
284.12	0.045
284.48	0.246
284.85	0.391
285.21	0.566
285.57	0.449
285.93	0.609
286.29	0.386
286.65	0.440
287.02	0.691
287.38	0.633
287.74	0.474
288.10	0.449
288.46	0.310
288.82	0.130
289.18	-0.005
289.54	0.016
289.91	-0.152
290.27	-0.040
290.63	0.126
290.99	0.045
291.35	0.042
291.71	0.130
292.07	0.042
292.43	0.099
292.79	0.212
293.16	0.342
293.52	0.509
293.88	0.564
294.24	0.490
294.60	0.446
294.96	0.356
295.32	0.499
295.68	0.510
296.04	0.558
296.40	0.574
296.76	0.628
297.12	0.507
297.49	0.354
297.85	0.169
298.21	0.204
298.57	-0.020
298.93	0.045
299.29	-0.180
299.65	-0.098
300.01	-0.085
300.37	-0.010
300.73	0.108
301.09	0.158
301.45	0.179
301.81	0.376
302.17	0.489
302.53	0.519
302.89	0.444
303.25	0.662
303.61	0.667
303.97	0.607
304.33	0.510
304.69	0.380
305.05	0.275
305.41	0.319
305.77	0.364
306.13	0.229
306.49	0.249
306.85	0.334
307.21	0.275
307.57	0.320
307.93	0.440
308.29	0.638
308.65	0.627
309.01	0.769
309.37	0.797
309.73	0.785
310.09	0.847
310.45	0.986
310.81	0.925
311.17	0.950
311.53	0.915
311.89	0.871
312.25	0.714
312.61	0.696
312.96	0.578
313.32	0.612
313.68	0.521
314.04	0.470
314.40	0.477
314.76	0.479
315.12	0.456
315.48	0.472
315.84	0.384
316.20	0.385
316.56	0.363
316.92	0.384
317.27	0.259
317.63	0.260
317.99	0.168
318.35	0.169
318.71	0.166
319.07	0.205
319.43	0.189
319.79	0.416
320.15	0.440
320.50	0.462
320.86	0.437
321.22	0.534
321.58	0.503
321.94	0.527
322.30	0.371
322.66	0.340
323.01	0.235
323.37	0.157
323.73	-0.057
324.09	-0.163
324.45	-0.137
324.81	-0.108
325.17	-0.130
325.52	-0.144
325.88	-0.130
326.24	-0.023
326.60	-0.040
326.96	0.046
327.31	0.056
327.67	0.052
328.03	0.051
328.39	0.063
328.75	0.152
329.11	0.164
329.46	0.252
329.82	0.353
330.18	0.187
330.54	0.192
330.90	0.039
331.25	0.112
331.61	0.396
331.97	0.516
332.33	0.474
332.68	0.486
333.04	0.514
333.40	0.478
333.76	0.361
334.11	0.503
334.47	0.555
334.83	0.624
335.19	0.538
335.54	0.373
335.90	0.356
336.26	0.440
336.62	0.321
336.97	0.285
337.33	0.264
337.69	0.350
338.05	0.311
338.40	0.275
338.76	0.289
339.12	0.400
339.48	0.434
339.83	0.510
340.19	0.564
340.55	0.707
340.90	0.690
341.26	0.693
341.62	0.652
341.97	0.704
342.33	0.786
342.69	0.868
343.04	0.819
343.40	0.757
343.76	0.628
344.12	0.614
344.47	0.644
344.83	0.706
345.19	0.749
345.54	0.818
345.90	0.834
346.26	0.916
346.61	0.940
346.97	1.022
347.32	1.050
347.68	1.147
348.04	1.092
348.39	1.008
348.75	1.042
349.11	1.046
349.46	1.036
349.82	1.102
350.18	0.983
350.53	1.032
350.89	1.034
351.24	1.063
351.60	1.041
351.96	1.115
352.31	1.081
352.67	1.030
353.02	1.023
353.38	1.019
353.74	0.976
354.09	1.016
354.45	0.983
354.80	0.995
355.16	1.065
355.52	1.104
355.87	1.055
356.23	1.172
356.58	1.214
356.94	1.304
357.29	1.357
357.65	1.417
358.00	1.448
358.36	1.473
358.72	1.457
359.07	1.440
359.43	1.462
359.78	1.559
360.14	1.551
360.49	1.566
360.85	1.566
361.20	1.559
361.56	1.545
361.91	1.600
362.27	1.569
362.62	1.644
362.98	1.690
363.33	1.697
363.69	1.647
364.04	1.692
364.40	1.712
364.75	1.695
365.11	1.699
365.46	1.676
365.82	1.659
366.17	1.659
366.53	1.640
366.88	1.671
367.24	1.670
367.59	1.700
367.95	1.655
368.30	1.673
368.66	1.719
369.01	1.717
369.37	1.789
369.72	1.863
370.08	1.930
370.43	1.936
370.78	1.912
371.14	1.894
371.49	1.931
371.85	1.978
372.20	1.967
372.56	1.972
372.91	2.012
373.26	2.041
373.62	1.963
373.97	2.005
374.33	2.020
374.68	2.050
375.03	2.111
375.39	2.070
375.74	2.044
376.10	2.102
376.45	2.099
376.80	2.138
377.16	2.105
377.51	2.155
377.87	2.143
378.22	2.162
378.57	2.134
378.93	2.150
379.28	2.209
379.63	2.268
379.99	2.295
380.34	2.348
380.70	2.347
381.05	2.411
381.40	2.423
381.76	2.498
382.11	2.520
382.46	2.595
382.82	2.641
383.17	2.718
383.52	2.699
383.88	2.680
384.23	2.686
384.58	2.709
384.94	2.687
385.29	2.738
385.64	2.744
385.99	2.807
386.35	2.866
386.70	2.882
387.05	2.882
387.41	2.965
387.76	3.024
388.11	3.095
388.47	3.122
388.82	3.219
389.17	3.245
389.52	3.285
389.88	3.310
390.23	3.332
390.58	3.417
390.93	3.488
391.29	3.568
391.64	3.640
391.99	3.693
392.34	3.817
392.70	3.845
393.05	3.889
393.40	3.921
393.75	3.980
394.11	4.047
394.46	4.052
394.81	4.057
395.16	4.051
395.52	4.065
395.87	4.063
396.22	4.060
396.57	4.071
396.92	4.095
397.28	4.114
397.63	4.094
397.98	4.066
398.33	4.062
398.68	4.098
399.04	4.097
399.39	4.098
399.74	4.119
400.09	4.108
400.44	4.127
400.80	4.144
401.15	4.153
401.50	4.198
401.85	4.222
402.20	4.246
402.55	4.227
402.90	4.215
403.26	4.226
403.61	4.206
403.96	4.187
404.31	4.183
404.66	4.172
405.01	4.156
405.36	4.144
405.72	4.120
406.07	4.095
406.42	4.087
406.77	4.114
407.12	4.107
407.47	4.143
407.82	4.143
408.17	4.132
408.53	4.119
408.88	4.113
409.23	4.074
409.58	4.057
409.93	4.074
410.28	4.040
410.63	4.005
410.98	4.007
411.33	3.978
411.68	3.974
412.03	3.996
412.38	3.993
412.73	4.009
413.09	4.055
413.44	4.076
413.79	4.062
414.14	4.102
414.49	4.114
414.84	4.123
415.19	4.112
415.54	4.143
415.89	4.127
416.24	4.155
416.59	4.156
416.94	4.161
417.29	4.167
417.64	4.159
417.99	4.157
418.34	4.178
418.69	4.175
419.04	4.184
419.39	4.180
419.74	4.183
420.09	4.182
420.44	4.189
420.79	4.172
421.14	4.170
421.49	4.196
421.84	4.186
422.19	4.181
422.54	4.174
422.89	4.174
423.24	4.154
423.59	4.141
423.94	4.116
424.29	4.101
424.64	4.082
424.99	4.049
425.34	4.005
425.68	4.000
426.03	3.948
426.38	3.950
426.73	3.930
427.08	3.920
427.43	3.914
427.78	3.903
428.13	3.861
428.48	3.857
428.83	3.855
429.18	3.845
429.53	3.840
429.87	3.820
430.22	3.772
430.57	3.761
430.92	3.755
431.27	3.754
431.62	3.718
431.97	3.740
432.32	3.725
432.67	3.698
433.01	3.680
433.36	3.649
433.71	3.650
434.06	3.635
434.41	3.607
434.76	3.607
435.11	3.606
435.45	3.632
435.80	3.618
436.15	3.640
436.50	3.680
436.85	3.709
437.20	3.720
437.54	3.727
437.89	3.767
438.24	3.793
438.59	3.799
438.94	3.812
439.29	3.824
439.63	3.844
439.98	3.847
440.33	3.835
440.68	3.856
441.03	3.890
441.37	3.944
441.72	3.971
442.07	3.995
442.42	4.029
442.76	4.068
443.11	4.088
443.46	4.124
443.81	4.168
444.16	4.227
444.50	4.256
444.85	4.293
445.20	4.310
445.55	4.339
445.89	4.368
446.24	4.397
446.59	4.397
446.94	4.448
447.28	4.472
447.63	4.503
447.98	4.514
448.32	4.551
448.67	4.570
449.02	4.598
449.37	4.605
449.71	4.652
450.06	4.672
450.41	4.724
450.75	4.740
451.10	4.761
451.45	4.771
451.79	4.784
452.14	4.782
452.49	4.799
452.84	4.800
453.18	4.834
453.53	4.831
453.88	4.851
454.22	4.847
454.57	4.865
454.92	4.881
455.26	4.918
455.61	4.971
455.95	5.010
456.30	5.036
456.65	5.077
456.99	5.085
457.34	5.119
457.69	5.140
458.03	5.164
458.38	5.184
458.73	5.194
459.07	5.182
459.42	5.165
459.76	5.129
460.11	5.105
460.46	5.076
460.80	5.064
461.15	5.032
461.49	4.995
461.84	4.976
462.19	4.955
462.53	4.940
462.88	4.941
463.22	4.918
463.57	4.915
463.91	4.910
464.26	4.925
464.61	4.925
464.95	4.911
465.30	4.916
465.64	4.922
465.99	4.909
466.33	4.912
466.68	4.907
467.02	4.912
467.37	4.909
467.71	4.902
468.06	4.901
468.41	4.897
468.75	4.889
469.10	4.897
469.44	4.876
469.79	4.859
470.13	4.819
470.48	4.803
470.82	4.797
471.17	4.818
471.51	4.825
471.86	4.813
472.20	4.814
472.55	4.834
472.89	4.830
473.23	4.830
473.58	4.835
473.92	4.866
474.27	4.859
474.61	4.871
474.96	4.874
475.30	4.881
475.65	4.864
475.99	4.868
476.34	4.848
476.68	4.837
477.02	4.836
477.37	4.861
477.71	4.904
478.06	4.944
478.40	5.012
478.75	5.096
479.09	5.195
479.43	5.326
479.78	5.467
480.12	5.628
480.47	5.789
480.81	5.943
481.15	6.077
481.50	6.214
481.84	6.380
482.19	6.538
482.53	6.678
482.87	6.776
483.22	6.806
483.56	6.765
483.90	6.668
484.25	6.547
484.59	6.419
484.94	6.309
485.28	6.207
485.62	6.081
485.97	5.941
486.31	5.823
486.65	5.743
487.00	5.718
487.34	5.740
487.68	5.800
488.03	5.872
488.37	5.949
488.71	6.000
489.06	6.032
489.40	6.050
489.74	6.073
490.09	6.093
490.43	6.097
490.77	6.102
491.11	6.100
491.46	6.108
491.80	6.111
492.14	6.106
492.49	6.125
492.83	6.132
493.17	6.146
493.51	6.172
493.86	6.204
494.20	6.262
494.54	6.340
494.88	6.427
495.23	6.510
495.57	6.580
495.91	6.680
496.25	6.752
496.60	6.836
496.94	6.917
497.28	6.999
497.62	7.083
497.97	7.163
498.31	7.230
498.65	7.313
498.99	7.380
499.33	7.517
499.68	7.631
500.02	7.763
500.36	7.883
500.70	8.018
501.04	8.134
501.39	8.259
501.73	8.395
502.07	8.532
502.41	8.661
502.75	8.832
503.09	8.963
503.44	9.104
503.78	9.240
504.12	9.384
504.46	9.537
504.80	9.721
505.14	9.907
505.49	10.088
505.83	10.282
506.17	10.472
506.51	10.637
506.85	10.805
507.19	10.966
507.53	11.132
507.87	11.299
508.22	11.462
508.56	11.632
508.90	11.773
509.24	11.930
509.58	12.079
509.92	12.250
510.26	12.415
510.60	12.581
510.94	12.776
511.28	12.945
511.63	13.134
511.97	13.330
512.31	13.526
512.65	13.727
512.99	13.933
513.33	14.184
513.67	14.420
514.01	14.685
514.35	14.943
514.69	15.174
515.03	15.437
515.37	15.677
515.71	15.913
516.05	16.113
516.39	16.323
516.73	16.523
517.07	16.688
517.41	16.849
517.75	16.994
518.09	17.171
518.43	17.321
518.77	17.444
519.11	17.595
519.45	17.729
519.79	17.897
520.13	18.067
520.47	18.265
520.81	18.444
521.15	18.676
521.49	18.908
521.83	19.109
522.17	19.320
522.51	19.571
522.85	19.799
523.19	20.077
523.53	20.385
523.87	20.686
524.21	21.000
524.55	21.332
524.89	21.614
525.23	21.884
525.57	22.122
525.91	22.372
526.25	22.580
526.58	22.791
526.92	22.950
527.26	23.052
527.60	23.144
527.94	23.218
528.28	23.235
528.62	23.241
528.96	23.242
529.30	23.243
529.64	23.204
529.97	23.194
530.31	23.165
530.65	23.167
530.99	23.202
531.33	23.247
531.67	23.262
532.01	23.311
532.35	23.363
532.68	23.399
533.02	23.416
533.36	23.454
533.70	23.452
534.04	23.454
534.38	23.449
534.71	23.455
535.05	23.454
535.39	23.473
535.73	23.487
536.07	23.487
536.41	23.508
536.74	23.564
537.08	23.598
537.42	23.692
537.76	23.782
538.10	23.875
538.43	23.954
538.77	24.044
539.11	24.120
539.45	24.213
539.79	24.287
540.12	24.344
540.46	24.375
540.80	24.411
541.14	24.392
541.47	24.355
541.81	24.324
542.15	24.288
542.49	24.239
542.82	24.168
543.16	24.086
543.50	24.022
543.84	23.936
544.17	23.887
544.51	23.863
544.85	23.850
545.18	23.863
545.52	23.854
545.86	23.861
546.20	23.864
546.53	23.870
546.87	23.849
547.21	23.837
547.54	23.843
547.88	23.835
548.22	23.796
548.55	23.783
548.89	23.753
549.23	23.745
549.56	23.701
549.90	23.702
550.24	23.702
550.57	23.724
550.91	23.709
551.25	23.727
551.58	23.736
551.92	23.726
552.26	23.696
552.59	23.708
552.93	23.696
553.27	23.666
553.60	23.616
553.94	23.570
554.27	23.527
554.61	23.514
554.95	23.464
555.28	23.423
555.62	23.392
555.95	23.387
556.29	23.327
556.63	23.265
556.96	23.277
557.30	23.239
557.63	23.196
557.97	23.161
558.31	23.088
558.64	23.049
558.98	22.988
559.31	22.984
559.65	22.917
559.98	22.859
560.32	22.816
560.65	22.719
560.99	22.652
561.33	22.591
561.66	22.524
562.00	22.471
562.33	22.435
562.67	22.383
563.00	22.296
563.34	22.258
563.67	22.202
564.01	22.136
564.34	22.083
564.68	22.011
565.01	21.929
565.35	21.871
565.68	21.806
566.02	21.696
566.35	21.599
566.69	21.472
567.02	21.350
567.36	21.245
567.69	21.171
568.03	21.069
568.36	20.962
568.69	20.884
569.03	20.777
569.36	20.678
569.70	20.583
570.03	20.499
570.37	20.449
570.70	20.388
571.04	20.319
571.37	20.218
571.70	20.138
572.04	20.065
572.37	19.995
572.71	19.913
573.04	19.843
573.37	19.785
573.71	19.712
574.04	19.617
574.38	19.528
574.71	19.438
575.04	19.366
575.38	19.295
575.71	19.235
576.05	19.160
576.38	19.109
576.71	19.011
577.05	18.933
577.38	18.868
577.71	18.808
578.05	18.697
578.38	18.619
578.71	18.547
579.05	18.475
579.38	18.395
579.71	18.340
580.05	18.240
580.38	18.192
580.71	18.116
581.05	18.033
581.38	17.979
581.71	17.960
582.05	17.901
582.38	17.849
582.71	17.789
583.04	17.748
583.38	17.660
583.71	17.618
584.04	17.570
584.38	17.521
584.71	17.484
585.04	17.435
585.37	17.380
585.71	17.356
586.04	17.302
586.37	17.313
586.70	17.279
587.04	17.271
587.37	17.251
587.70	17.227
588.03	17.175
588.37	17.175
588.70	17.147
589.03	17.128
589.36	17.094
589.69	17.070
590.03	16.991
590.36	16.945
590.69	16.859
591.02	16.810
591.35	16.810
591.69	16.797
592.02	16.705
592.35	16.684
592.68	16.659
593.01	16.630
593.35	16.605
593.68	16.591
594.01	16.565
594.34	16.579
594.67	16.565
595.00	16.478
595.34	16.466
595.67	16.449
596.00	16.391
596.33	16.338
596.66	16.304
596.99	16.258
597.32	16.201
597.65	16.175
597.99	16.112
598.32	16.043
598.65	16.007
598.98	15.953
599.31	15.899
599.64	15.875
599.97	15.820
600.30	15.790
600.63	15.776
600.96	15.756
601.30	15.738
601.63	15.735
601.96	15.731
602.29	15.726
602.62	15.680
602.95	15.678
603.28	15.655
603.61	15.628
603.94	15.595
604.27	15.545
604.60	15.478
604.93	15.394
605.26	15.344
605.59	15.294
605.92	15.238
606.25	15.168
606.58	15.085
606.91	15.003
607.24	14.958
607.57	14.865
607.90	14.818
608.23	14.763
608.56	14.707
608.89	14.623
609.22	14.513
609.55	14.432
609.88	14.373
610.21	14.324
610.54	14.230
610.87	14.115
611.20	14.056
611.53	13.925
611.86	13.852
612.19	13.750
612.52	13.651
612.85	13.608
613.18	13.505
613.51	13.395
613.84	13.280
614.17	13.227
614.49	13.188
614.82	13.096
615.15	13.072
615.48	13.008
615.81	12.955
616.14	12.905
616.47	12.834
616.80	12.799
617.13	12.778
617.46	12.727
617.78	12.699
618.11	12.655
618.44	12.634
618.77	12.567
619.10	12.518
619.43	12.494
619.76	12.425
620.09	12.404
620.41	12.370
620.74	12.353
621.07	12.365
621.40	12.317
621.73	12.307
622.06	12.272
622.38	12.246
622.71	12.247
623.04	12.236
623.37	12.259
623.70	12.244
624.02	12.225
624.35	12.230
624.68	12.233
625.01	12.245
625.34	12.277
625.66	12.309
625.99	12.346
626.32	12.368
626.65	12.391
626.98	12.381
627.30	12.359
627.63	12.346
627.96	12.304
628.29	12.272
628.61	12.249
628.94	12.176
629.27	12.120
629.60	12.051
629.92	11.979
630.25	11.899
630.58	11.876
630.91	11.829
631.23	11.773
631.56	11.733
631.89	11.667
632.21	11.599
632.54	11.562
632.87	11.491
633.19	11.438
633.52	11.391
633.85	11.333
634.18	11.222
634.50	11.128
634.83	11.065
635.16	10.947
635.48	10.833
635.81	10.749
636.14	10.609
636.46	10.518
636.79	10.398
637.11	10.276
637.44	10.114
637.77	10.010
638.09	9.886
638.42	9.751
638.75	9.664
639.07	9.575
639.40	9.435
639.73	9.328
640.05	9.224
640.38	9.146
640.70	9.020
641.03	8.982
641.36	8.856
641.68	8.801
642.01	8.728
642.33	8.642
642.66	8.559
642.98	8.472
643.31	8.363
643.64	8.248
643.96	8.133
644.29	8.086
644.61	8.008
644.94	7.985
645.26	7.917
645.59	7.892
645.91	7.846
646.24	7.779
646.56	7.734
646.89	7.716
647.22	7.672
647.54	7.666
647.87	7.613
