OOIBase32 Version 2.0.0.6 Data File
++++++++++++++++++++++++++++++++++++
Date: 01-23-2012, 23:16:28
User: Valued Ocean Optics Customer
Spectrometer Serial Number: USB2E2917
Spectrometer Channel: Master
Integration Time (msec): 5
Spectra Averaged: 10
Boxcar Smoothing: 5
Correct for Electrical Dark: Enabled
Time Normalized: Disabled
Dual-beam Reference: Disabled
Reference Channel: Master
Temperature: Not acquired
Spectrometer Type: S2000
ADC Type: USB2000
Number of Pixels in File: 2048
Graph Title: 
>>>>>Begin Spectral Data<<<<<
180.30	0.000
180.67	0.000
181.03	206.841
181.40	457.031
181.77	-5325.841
182.14	112.347
182.51	911.149
182.88	26.038
183.25	46.004
183.62	37.674
183.99	210.497
184.36	-175.278
184.73	341.379
185.10	83.337
185.46	-299.165
185.83	131.540
186.20	-853.661
186.57	-64.093
186.94	33.448
187.31	15.304
187.68	-83.919
188.05	61.776
188.42	69.961
188.78	99.346
189.15	200.998
189.52	-50.036
189.89	-29.061
190.26	-12.098
190.63	1.551
191.00	9.958
191.37	6.896
191.73	10.025
192.10	5.545
192.47	11.097
192.84	13.632
193.21	16.348
193.58	16.124
193.94	2.544
194.31	3.762
194.68	-4.911
195.05	-14.663
195.42	5.134
195.79	-0.210
196.15	6.870
196.52	-9.714
196.89	-8.331
197.26	-25.356
197.63	-12.471
198.00	5.115
198.36	-2.592
198.73	-9.941
199.10	-22.815
199.47	-31.915
199.84	-14.680
200.20	-22.812
200.57	-9.146
200.94	-20.057
201.31	-27.153
201.68	-34.426
202.04	-22.180
202.41	-10.357
202.78	-9.859
203.15	24.259
203.51	24.544
203.88	16.767
204.25	18.058
204.62	6.327
204.98	16.415
205.35	11.210
205.72	1.968
206.09	-14.573
206.46	-74.776
206.82	-64.131
207.19	-83.878
207.56	-131.330
207.92	-108.892
208.29	-111.925
208.66	-64.751
209.03	-67.988
209.39	-34.018
209.76	-15.693
210.13	-25.562
210.50	9.664
210.86	21.796
211.23	8.818
211.60	8.620
211.96	8.714
212.33	0.552
212.70	-16.746
213.07	-27.800
213.43	-69.671
213.80	-80.874
214.17	-42.961
214.53	-33.805
214.90	-29.133
215.27	-14.926
215.63	-9.289
216.00	-14.725
216.37	-13.368
216.74	-16.097
217.10	-3.857
217.47	2.277
217.84	5.595
218.20	0.305
218.57	-1.756
218.94	-2.900
219.30	-11.394
219.67	-24.219
220.04	-26.158
220.40	-24.777
220.77	-22.404
221.13	-20.212
221.50	-17.677
221.87	-18.120
222.23	-19.742
222.60	-25.532
222.97	-24.305
223.33	-18.295
223.70	-12.439
224.07	-7.898
224.43	-7.714
224.80	-5.920
225.16	-8.401
225.53	-9.565
225.90	-11.429
226.26	-7.730
226.63	-6.276
226.99	-6.239
227.36	-6.250
227.73	-4.127
228.09	-4.967
228.46	-2.337
228.82	-2.015
229.19	-0.998
229.56	-0.690
229.92	2.179
230.29	1.775
230.65	1.843
231.02	0.717
231.38	-1.104
231.75	-2.266
232.12	-2.865
232.48	-7.989
232.85	-9.715
233.21	-10.220
233.58	-10.799
233.94	-11.213
234.31	-12.003
234.68	-9.177
235.04	-7.884
235.41	-6.239
235.77	-5.074
236.14	-3.572
236.50	-1.445
236.87	-0.709
237.23	-0.659
237.60	-0.193
237.96	-0.070
238.33	-0.160
238.69	-1.605
239.06	-1.372
239.42	-1.090
239.79	-1.931
240.15	-1.723
240.52	-0.786
240.88	-0.348
241.25	-0.475
241.61	0.102
241.98	-0.269
242.34	0.091
242.71	0.500
243.07	0.726
243.44	0.659
243.80	0.686
244.17	0.594
244.53	0.211
244.90	0.153
245.26	0.404
245.63	0.261
245.99	0.329
246.36	0.141
246.72	0.302
247.09	0.056
247.45	0.320
247.81	0.880
248.18	1.018
248.54	1.162
248.91	0.908
249.27	0.797
249.64	0.750
250.00	0.862
250.36	0.633
250.73	0.245
251.09	0.548
251.46	0.278
251.82	-0.032
252.19	0.069
252.55	-0.160
252.91	-0.032
253.28	0.202
253.64	-0.296
254.01	-0.368
254.37	0.337
254.73	0.453
255.10	0.479
255.46	1.022
255.83	0.925
256.19	0.864
256.55	0.686
256.92	0.817
257.28	1.010
257.65	1.424
258.01	1.623
258.37	1.550
258.74	1.455
259.10	1.352
259.46	1.137
259.83	1.124
260.19	1.130
260.55	1.412
260.92	1.450
261.28	1.212
261.64	1.015
262.01	0.842
262.37	0.837
262.73	1.039
263.10	1.125
263.46	1.111
263.82	1.111
264.19	1.157
264.55	0.766
264.91	0.704
265.28	0.478
265.64	0.513
266.00	0.475
266.37	0.209
266.73	0.137
267.09	0.120
267.46	-0.126
267.82	-0.286
268.18	-0.280
268.54	-0.081
268.91	-0.054
269.27	0.145
269.63	0.325
270.00	0.283
270.36	0.362
270.72	0.508
271.08	0.400
271.45	0.571
271.81	0.638
272.17	0.435
272.53	0.474
272.90	0.548
273.26	0.747
273.62	0.604
273.98	0.604
274.35	0.702
274.71	0.748
275.07	0.895
275.43	1.134
275.80	1.380
276.16	1.547
276.52	1.587
276.88	1.633
277.25	1.407
277.61	1.191
277.97	1.096
278.33	1.117
278.69	0.755
279.06	0.742
279.42	0.693
279.78	0.633
280.14	0.660
280.50	0.827
280.87	0.822
281.23	1.040
281.59	1.283
281.95	1.446
282.31	1.565
282.68	1.434
283.04	1.374
283.40	1.300
283.76	1.316
284.12	1.440
284.48	1.289
284.85	1.226
285.21	1.076
285.57	0.979
285.93	0.898
286.29	0.638
286.65	0.948
287.02	1.339
287.38	1.225
287.74	1.025
288.10	0.882
288.46	0.899
288.82	0.829
289.18	0.776
289.54	0.730
289.91	0.804
290.27	0.960
290.63	1.092
290.99	0.903
291.35	1.022
291.71	1.198
292.07	1.206
292.43	1.307
292.79	1.392
293.16	1.436
293.52	1.532
293.88	1.581
294.24	1.521
294.60	1.373
294.96	1.301
295.32	1.365
295.68	1.461
296.04	1.496
296.40	1.546
296.76	1.562
297.12	1.546
297.49	1.391
297.85	1.192
298.21	1.148
298.57	0.851
298.93	0.791
299.29	0.603
299.65	0.431
300.01	0.337
300.37	0.248
300.73	0.304
301.09	0.239
301.45	0.388
301.81	0.597
302.17	0.632
302.53	0.728
302.89	0.616
303.25	0.716
303.61	0.770
303.97	0.730
304.33	0.735
304.69	0.761
305.05	0.859
305.41	0.833
305.77	0.786
306.13	0.726
306.49	0.751
306.85	1.060
307.21	1.167
307.57	1.209
307.93	1.261
308.29	1.271
308.65	1.259
309.01	1.335
309.37	1.345
309.73	1.417
310.09	1.619
310.45	1.673
310.81	1.534
311.17	1.495
311.53	1.464
311.89	1.481
312.25	1.500
312.61	1.511
312.96	1.418
313.32	1.472
313.68	1.399
314.04	1.225
314.40	1.329
314.76	1.355
315.12	1.204
315.48	1.282
315.84	1.233
316.20	1.198
316.56	1.157
316.92	1.162
317.27	1.127
317.63	1.126
317.99	1.144
318.35	1.149
318.71	1.119
319.07	1.256
319.43	1.220
319.79	1.275
320.15	1.262
320.50	1.328
320.86	1.326
321.22	1.329
321.58	1.332
321.94	1.279
322.30	1.111
322.66	1.151
323.01	1.039
323.37	1.020
323.73	1.040
324.09	1.001
324.45	1.069
324.81	1.092
325.17	1.148
325.52	1.077
325.88	1.067
326.24	1.200
326.60	1.198
326.96	1.255
327.31	1.218
327.67	1.187
328.03	1.252
328.39	1.080
328.75	1.145
329.11	1.119
329.46	1.227
329.82	1.326
330.18	1.325
330.54	1.250
330.90	1.219
331.25	1.302
331.61	1.390
331.97	1.358
332.33	1.415
332.68	1.392
333.04	1.362
333.40	1.284
333.76	1.283
334.11	1.257
334.47	1.309
334.83	1.272
335.19	1.166
335.54	1.079
335.90	1.089
336.26	1.178
336.62	1.126
336.97	1.074
337.33	1.064
337.69	1.026
338.05	1.036
338.40	1.017
338.76	1.126
339.12	1.202
339.48	1.221
339.83	1.266
340.19	1.271
340.55	1.368
340.90	1.404
341.26	1.487
341.62	1.532
341.97	1.595
342.33	1.613
342.69	1.643
343.04	1.714
343.40	1.627
343.76	1.570
344.12	1.544
344.47	1.547
344.83	1.629
345.19	1.622
345.54	1.679
345.90	1.690
346.26	1.795
346.61	1.844
346.97	1.865
347.32	2.000
347.68	2.041
348.04	2.063
348.39	2.009
348.75	2.058
349.11	2.074
349.46	2.005
349.82	1.984
350.18	1.966
350.53	1.959
350.89	1.945
351.24	1.909
351.60	1.942
351.96	1.953
352.31	1.996
352.67	2.036
353.02	2.066
353.38	2.191
353.74	2.281
354.09	2.271
354.45	2.261
354.80	2.264
355.16	2.393
355.52	2.479
355.87	2.508
356.23	2.572
356.58	2.602
356.94	2.670
357.29	2.695
357.65	2.678
358.00	2.724
358.36	2.772
358.72	2.806
359.07	2.828
359.43	2.877
359.78	2.944
360.14	3.028
360.49	3.032
360.85	3.033
361.20	3.058
361.56	3.087
361.91	3.153
362.27	3.196
362.62	3.268
362.98	3.344
363.33	3.354
363.69	3.365
364.04	3.405
364.40	3.465
364.75	3.540
365.11	3.583
365.46	3.637
365.82	3.707
366.17	3.804
366.53	3.843
366.88	3.835
367.24	3.870
367.59	3.928
367.95	3.979
368.30	4.042
368.66	4.099
369.01	4.155
369.37	4.255
369.72	4.368
370.08	4.446
370.43	4.522
370.78	4.597
371.14	4.673
371.49	4.760
371.85	4.795
372.20	4.827
372.56	4.843
372.91	4.929
373.26	4.966
373.62	4.906
373.97	4.944
374.33	4.972
374.68	5.008
375.03	5.068
375.39	5.109
375.74	5.153
376.10	5.195
376.45	5.292
376.80	5.337
377.16	5.334
377.51	5.407
377.87	5.418
378.22	5.440
378.57	5.478
378.93	5.546
379.28	5.612
379.63	5.662
379.99	5.705
380.34	5.733
380.70	5.754
381.05	5.858
381.40	5.893
381.76	5.981
382.11	6.037
382.46	6.119
382.82	6.152
383.17	6.167
383.52	6.175
383.88	6.199
384.23	6.245
384.58	6.251
384.94	6.247
385.29	6.278
385.64	6.276
385.99	6.339
386.35	6.377
386.70	6.390
387.05	6.389
387.41	6.429
387.76	6.463
388.11	6.488
388.47	6.530
388.82	6.582
389.17	6.622
389.52	6.674
389.88	6.703
390.23	6.709
390.58	6.775
390.93	6.825
391.29	6.846
391.64	6.897
391.99	6.928
392.34	6.969
392.70	6.979
393.05	7.006
393.40	7.013
393.75	7.001
394.11	7.029
394.46	7.000
394.81	7.005
395.16	7.029
395.52	7.040
395.87	7.041
396.22	7.045
396.57	7.031
396.92	7.034
397.28	7.007
397.63	7.009
397.98	6.981
398.33	7.004
398.68	7.013
399.04	7.008
399.39	7.000
399.74	6.974
400.09	6.989
400.44	7.019
400.80	7.000
401.15	7.020
401.50	7.040
401.85	7.068
402.20	7.046
402.55	7.075
402.90	7.089
403.26	7.090
403.61	7.086
403.96	7.061
404.31	7.081
404.66	7.087
405.01	7.079
405.36	7.081
405.72	7.065
406.07	7.093
406.42	7.075
406.77	7.054
407.12	7.052
407.47	7.088
407.82	7.103
408.17	7.078
408.53	7.124
408.88	7.134
409.23	7.141
409.58	7.130
409.93	7.142
410.28	7.168
410.63	7.177
410.98	7.196
411.33	7.213
411.68	7.241
412.03	7.303
412.38	7.297
412.73	7.348
413.09	7.365
413.44	7.386
413.79	7.404
414.14	7.393
414.49	7.415
414.84	7.442
415.19	7.440
415.54	7.459
415.89	7.464
416.24	7.484
416.59	7.473
416.94	7.486
417.29	7.531
417.64	7.533
417.99	7.588
418.34	7.615
418.69	7.624
419.04	7.636
419.39	7.646
419.74	7.642
420.09	7.665
420.44	7.678
420.79	7.681
421.14	7.673
421.49	7.695
421.84	7.666
422.19	7.671
422.54	7.667
422.89	7.676
423.24	7.674
423.59	7.673
423.94	7.646
424.29	7.650
424.64	7.654
424.99	7.645
425.34	7.623
425.68	7.644
426.03	7.636
426.38	7.646
426.73	7.637
427.08	7.647
427.43	7.665
427.78	7.682
428.13	7.659
428.48	7.675
428.83	7.681
429.18	7.695
429.53	7.678
429.87	7.673
430.22	7.657
430.57	7.682
430.92	7.680
431.27	7.683
431.62	7.682
431.97	7.715
432.32	7.719
432.67	7.729
433.01	7.732
433.36	7.719
433.71	7.714
434.06	7.717
434.41	7.700
434.76	7.708
435.11	7.713
435.45	7.709
435.80	7.710
436.15	7.719
436.50	7.743
436.85	7.765
437.20	7.796
437.54	7.819
437.89	7.852
438.24	7.887
438.59	7.901
438.94	7.919
439.29	7.938
439.63	7.978
439.98	8.006
440.33	8.011
440.68	8.024
441.03	8.043
441.37	8.080
441.72	8.110
442.07	8.139
442.42	8.170
442.76	8.215
443.11	8.264
443.46	8.299
443.81	8.317
444.16	8.364
444.50	8.397
444.85	8.430
445.20	8.454
445.55	8.482
445.89	8.512
446.24	8.523
446.59	8.517
446.94	8.536
447.28	8.538
447.63	8.553
447.98	8.568
448.32	8.583
448.67	8.590
449.02	8.595
449.37	8.584
449.71	8.602
450.06	8.648
450.41	8.688
450.75	8.692
451.10	8.712
451.45	8.739
451.79	8.734
452.14	8.733
452.49	8.759
452.84	8.775
453.18	8.797
453.53	8.792
453.88	8.788
454.22	8.796
454.57	8.827
454.92	8.844
455.26	8.869
455.61	8.919
455.95	8.967
456.30	8.987
456.65	9.036
456.99	9.067
457.34	9.090
457.69	9.119
458.03	9.138
458.38	9.149
458.73	9.152
459.07	9.161
459.42	9.144
459.76	9.107
460.11	9.097
460.46	9.053
460.80	9.045
461.15	9.047
461.49	9.009
461.84	9.000
462.19	8.991
462.53	8.988
462.88	8.973
463.22	8.982
463.57	9.017
463.91	9.027
464.26	9.069
464.61	9.068
464.95	9.046
465.30	9.045
465.64	9.053
465.99	9.059
466.33	9.053
466.68	9.049
467.02	9.068
467.37	9.066
467.71	9.057
468.06	9.043
468.41	9.029
468.75	9.028
469.10	9.046
469.44	9.042
469.79	9.034
470.13	9.031
470.48	9.049
470.82	9.029
471.17	9.023
471.51	9.026
471.86	9.015
472.20	9.006
472.55	9.020
472.89	9.013
473.23	9.003
473.58	8.988
473.92	8.994
474.27	8.975
474.61	8.970
474.96	8.996
475.30	8.999
475.65	9.009
475.99	9.026
476.34	9.043
476.68	9.047
477.02	9.078
477.37	9.106
477.71	9.152
478.06	9.209
478.40	9.289
478.75	9.382
479.09	9.508
479.43	9.659
479.78	9.861
480.12	10.069
480.47	10.297
480.81	10.496
481.15	10.706
481.50	10.928
481.84	11.172
482.19	11.420
482.53	11.636
482.87	11.770
483.22	11.800
483.56	11.694
483.90	11.515
484.25	11.293
484.59	11.061
484.94	10.845
485.28	10.639
485.62	10.414
485.97	10.169
486.31	9.952
486.65	9.816
487.00	9.761
487.34	9.798
487.68	9.882
488.03	9.998
488.37	10.105
488.71	10.180
489.06	10.201
489.40	10.219
489.74	10.228
490.09	10.234
490.43	10.230
490.77	10.223
491.11	10.218
491.46	10.207
491.80	10.182
492.14	10.165
492.49	10.160
492.83	10.153
493.17	10.141
493.51	10.142
493.86	10.146
494.20	10.167
494.54	10.190
494.88	10.226
495.23	10.283
495.57	10.337
495.91	10.406
496.25	10.470
496.60	10.537
496.94	10.575
497.28	10.632
497.62	10.681
497.97	10.713
498.31	10.767
498.65	10.811
498.99	10.849
499.33	10.916
499.68	10.991
500.02	11.049
500.36	11.103
500.70	11.161
501.04	11.218
501.39	11.271
501.73	11.352
502.07	11.434
502.41	11.521
502.75	11.607
503.09	11.678
503.44	11.750
503.78	11.825
504.12	11.913
504.46	12.019
504.80	12.123
505.14	12.235
505.49	12.336
505.83	12.423
506.17	12.538
506.51	12.639
506.85	12.742
507.19	12.845
507.53	12.954
507.87	13.054
508.22	13.152
508.56	13.224
508.90	13.302
509.24	13.384
509.58	13.493
509.92	13.578
510.26	13.678
510.60	13.773
510.94	13.875
511.28	13.950
511.63	14.049
511.97	14.139
512.31	14.251
512.65	14.384
512.99	14.499
513.33	14.645
513.67	14.775
514.01	14.910
514.35	15.061
514.69	15.196
515.03	15.362
515.37	15.512
515.71	15.668
516.05	15.801
516.39	15.913
516.73	16.050
517.07	16.131
517.41	16.213
517.75	16.296
518.09	16.377
518.43	16.439
518.77	16.496
519.11	16.559
519.45	16.607
519.79	16.682
520.13	16.761
520.47	16.834
520.81	16.922
521.15	17.050
521.49	17.164
521.83	17.293
522.17	17.444
522.51	17.596
522.85	17.767
523.19	17.981
523.53	18.219
523.87	18.467
524.21	18.727
524.55	18.979
524.89	19.196
525.23	19.421
525.57	19.602
525.91	19.788
526.25	19.951
526.58	20.091
526.92	20.202
527.26	20.259
527.60	20.284
527.94	20.294
528.28	20.294
528.62	20.271
528.96	20.240
529.30	20.202
529.64	20.153
529.97	20.100
530.31	20.044
530.65	20.005
530.99	20.012
531.33	20.037
531.67	20.055
532.01	20.083
532.35	20.107
532.68	20.114
533.02	20.120
533.36	20.116
533.70	20.108
534.04	20.107
534.38	20.092
534.71	20.071
535.05	20.060
535.39	20.041
535.73	20.014
536.07	20.034
536.41	20.061
536.74	20.115
537.08	20.170
537.42	20.256
537.76	20.340
538.10	20.431
538.43	20.536
538.77	20.618
539.11	20.700
539.45	20.795
539.79	20.858
540.12	20.902
540.46	20.913
540.80	20.924
541.14	20.908
541.47	20.873
541.81	20.834
542.15	20.786
542.49	20.744
542.82	20.695
543.16	20.614
543.50	20.544
543.84	20.492
544.17	20.463
544.51	20.444
544.85	20.435
545.18	20.432
545.52	20.424
545.86	20.408
546.20	20.400
546.53	20.395
546.87	20.377
547.21	20.367
547.54	20.322
547.88	20.306
548.22	20.274
548.55	20.252
548.89	20.251
549.23	20.255
549.56	20.237
549.90	20.238
550.24	20.231
550.57	20.245
550.91	20.244
551.25	20.293
551.58	20.307
551.92	20.303
552.26	20.284
552.59	20.281
552.93	20.265
553.27	20.261
553.60	20.260
553.94	20.243
554.27	20.217
554.61	20.222
554.95	20.185
555.28	20.157
555.62	20.183
555.95	20.212
556.29	20.200
556.63	20.172
556.96	20.166
557.30	20.126
557.63	20.099
557.97	20.076
558.31	20.024
558.64	19.996
558.98	19.984
559.31	19.939
559.65	19.901
559.98	19.870
560.32	19.868
560.65	19.830
560.99	19.812
561.33	19.782
561.66	19.747
562.00	19.762
562.33	19.742
562.67	19.695
563.00	19.658
563.34	19.644
563.67	19.623
564.01	19.603
564.34	19.571
564.68	19.536
565.01	19.509
565.35	19.489
565.68	19.450
566.02	19.400
566.35	19.379
566.69	19.334
567.02	19.292
567.36	19.227
567.69	19.168
568.03	19.151
568.36	19.083
568.69	19.050
569.03	18.988
569.36	18.919
569.70	18.896
570.03	18.863
570.37	18.837
570.70	18.808
571.04	18.771
571.37	18.721
571.70	18.657
572.04	18.640
572.37	18.616
572.71	18.586
573.04	18.544
573.37	18.496
573.71	18.461
574.04	18.397
574.38	18.307
574.71	18.278
575.04	18.242
575.38	18.184
575.71	18.125
576.05	18.055
576.38	18.029
576.71	17.980
577.05	17.938
577.38	17.846
577.71	17.797
578.05	17.766
578.38	17.726
578.71	17.676
579.05	17.632
579.38	17.561
579.71	17.504
580.05	17.419
580.38	17.404
580.71	17.395
581.05	17.379
581.38	17.333
581.71	17.296
582.05	17.227
582.38	17.198
582.71	17.180
583.04	17.195
583.38	17.185
583.71	17.178
584.04	17.147
584.38	17.092
584.71	17.094
585.04	17.094
585.37	17.069
585.71	17.043
586.04	17.049
586.37	17.055
586.70	17.077
587.04	17.073
587.37	17.058
587.70	17.049
588.03	17.030
588.37	16.986
588.70	16.976
589.03	16.970
589.36	16.990
589.69	16.946
590.03	16.905
590.36	16.849
590.69	16.790
591.02	16.763
591.35	16.715
591.69	16.699
592.02	16.712
592.35	16.703
592.68	16.705
593.01	16.686
593.35	16.700
593.68	16.686
594.01	16.673
594.34	16.677
594.67	16.666
595.00	16.661
595.34	16.630
595.67	16.563
596.00	16.539
596.33	16.462
596.66	16.433
596.99	16.394
597.32	16.368
597.65	16.330
597.99	16.294
598.32	16.256
598.65	16.197
598.98	16.145
599.31	16.142
599.64	16.126
599.97	16.121
600.30	16.106
600.63	16.087
600.96	16.071
601.30	16.072
601.63	16.071
601.96	16.097
602.29	16.121
602.62	16.141
602.95	16.155
603.28	16.134
603.61	16.120
603.94	16.084
604.27	16.051
604.60	16.022
604.93	15.989
605.26	15.950
605.59	15.878
605.92	15.840
606.25	15.793
606.58	15.756
606.91	15.707
607.24	15.674
607.57	15.676
607.90	15.650
608.23	15.591
608.56	15.554
608.89	15.527
609.22	15.494
609.55	15.453
609.88	15.434
610.21	15.371
610.54	15.311
610.87	15.262
611.20	15.171
611.53	15.102
611.86	15.077
612.19	15.013
612.52	14.949
612.85	14.934
613.18	14.869
613.51	14.793
613.84	14.722
614.17	14.689
614.49	14.707
614.82	14.667
615.15	14.646
615.48	14.633
615.81	14.580
616.14	14.563
616.47	14.516
616.80	14.459
617.13	14.439
617.46	14.416
617.78	14.418
618.11	14.356
618.44	14.321
618.77	14.300
619.10	14.233
619.43	14.219
619.76	14.151
620.09	14.115
620.41	14.103
620.74	14.087
621.07	14.082
621.40	14.076
621.73	14.102
622.06	14.126
622.38	14.136
622.71	14.185
623.04	14.249
623.37	14.316
623.70	14.343
624.02	14.401
624.35	14.435
624.68	14.462
625.01	14.473
625.34	14.509
625.66	14.546
625.99	14.571
626.32	14.571
626.65	14.546
626.98	14.538
627.30	14.568
627.63	14.555
627.96	14.525
628.29	14.492
628.61	14.447
628.94	14.382
629.27	14.358
629.60	14.289
629.92	14.290
630.25	14.259
630.58	14.224
630.91	14.179
631.23	14.140
631.56	14.112
631.89	14.079
632.21	14.045
632.54	14.016
632.87	13.970
633.19	13.945
633.52	13.879
633.85	13.868
634.18	13.808
634.50	13.734
634.83	13.672
635.16	13.585
635.48	13.520
635.81	13.478
636.14	13.400
636.46	13.312
636.79	13.260
637.11	13.174
637.44	13.038
637.77	12.981
638.09	12.911
638.42	12.808
638.75	12.775
639.07	12.755
639.40	12.704
639.73	12.616
640.05	12.534
640.38	12.492
640.70	12.431
641.03	12.412
641.36	12.344
641.68	12.294
642.01	12.275
642.33	12.229
642.66	12.186
642.98	12.133
643.31	12.078
643.64	12.048
643.96	12.005
644.29	11.984
644.61	11.939
644.94	11.907
645.26	11.917
645.59	11.916
645.91	11.918
646.24	11.837
646.56	11.820
