OOIBase32 Version 2.0.0.6 Data File
++++++++++++++++++++++++++++++++++++
Date: 01-23-2012, 23:18:35
User: Valued Ocean Optics Customer
Spectrometer Serial Number: USB2E2917
Spectrometer Channel: Master
Integration Time (msec): 5
Spectra Averaged: 10
Boxcar Smoothing: 5
Correct for Electrical Dark: Enabled
Time Normalized: Disabled
Dual-beam Reference: Disabled
Reference Channel: Master
Temperature: Not acquired
Spectrometer Type: S2000
ADC Type: USB2000
Number of Pixels in File: 2048
Graph Title: 
>>>>>Begin Spectral Data<<<<<
180.30	0.000
180.67	0.000
181.03	-34.558
181.40	265.225
181.77	-454.511
182.14	79.295
182.51	-28.750
182.88	-44.576
183.25	-47.461
183.62	74.931
183.99	213.329
184.36	129.305
184.73	37.268
185.10	32.634
185.46	-291.862
185.83	409.909
186.20	716.847
186.57	147.428
186.94	158.551
187.31	26.651
187.68	13.933
188.05	14.648
188.42	51.910
188.78	30.615
189.15	419.448
189.52	-70.633
189.89	-33.506
190.26	-21.795
190.63	-0.650
191.00	10.232
191.37	18.771
191.73	22.004
192.10	19.734
192.47	30.706
192.84	17.610
193.21	26.800
193.58	20.653
193.94	24.079
194.31	12.600
194.68	11.478
195.05	-5.337
195.42	-6.085
195.79	-11.647
196.15	-25.566
196.52	-38.550
196.89	-39.624
197.26	-58.928
197.63	-47.414
198.00	-40.612
198.36	-22.519
198.73	-54.496
199.10	-29.495
199.47	-26.282
199.84	-29.750
200.20	-30.157
200.57	-31.931
200.94	-33.417
201.31	-30.424
201.68	-28.854
202.04	-24.257
202.41	-29.500
202.78	-27.009
203.15	-31.389
203.51	-28.937
203.88	-30.761
204.25	-5.741
204.62	-26.106
204.98	-28.966
205.35	-31.001
205.72	-40.365
206.09	-27.207
206.46	-52.738
206.82	-48.471
207.19	-38.324
207.56	-81.239
207.92	-60.795
208.29	-88.303
208.66	-26.149
209.03	-28.039
209.39	-6.170
209.76	-10.675
210.13	-60.001
210.50	-38.384
210.86	-33.087
211.23	-47.473
211.60	-23.936
211.96	-31.037
212.33	-17.986
212.70	-35.343
213.07	-39.925
213.43	-89.560
213.80	-83.647
214.17	-51.289
214.53	-39.704
214.90	-31.683
215.27	-22.654
215.63	-22.145
216.00	-11.170
216.37	-17.097
216.74	-25.915
217.10	-14.759
217.47	-5.783
217.84	3.627
218.20	5.661
218.57	0.110
218.94	2.009
219.30	0.511
219.67	-4.627
220.04	-3.347
220.40	-7.828
220.77	-11.429
221.13	-6.925
221.50	-6.117
221.87	-11.869
222.23	-15.701
222.60	-16.673
222.97	-26.581
223.33	-23.650
223.70	-19.129
224.07	-22.522
224.43	-18.245
224.80	-11.904
225.16	-16.358
225.53	-15.200
225.90	-16.101
226.26	-12.170
226.63	-9.912
226.99	-7.830
227.36	-8.073
227.73	-6.358
228.09	-6.079
228.46	-3.984
228.82	-3.012
229.19	-1.213
229.56	-0.815
229.92	2.209
230.29	2.162
230.65	1.874
231.02	1.320
231.38	-0.679
231.75	-0.482
232.12	-0.602
232.48	-4.420
232.85	-7.001
233.21	-9.250
233.58	-11.267
233.94	-12.438
234.31	-13.848
234.68	-13.752
235.04	-13.813
235.41	-11.148
235.77	-11.034
236.14	-9.826
236.50	-6.735
236.87	-5.726
237.23	-3.580
237.60	-3.130
237.96	-1.788
238.33	-1.070
238.69	-1.044
239.06	-0.608
239.42	-0.807
239.79	-2.058
240.15	-2.190
240.52	-2.130
240.88	-1.818
241.25	-1.892
241.61	-1.239
241.98	-1.749
242.34	-1.652
242.71	-1.465
243.07	-0.753
243.44	-0.880
243.80	-0.242
244.17	-0.013
244.53	-0.198
244.90	-0.122
245.26	-0.241
245.63	-0.570
245.99	-0.636
246.36	-0.834
246.72	-0.641
247.09	-1.196
247.45	-0.895
247.81	-0.703
248.18	-0.787
248.54	-0.843
248.91	-1.397
249.27	-1.169
249.64	-0.652
250.00	-0.206
250.36	0.023
250.73	-0.153
251.09	-0.184
251.46	-0.373
251.82	-0.780
252.19	-1.139
252.55	-1.068
252.91	-0.797
253.28	-1.205
253.64	-2.046
254.01	-2.369
254.37	-2.152
254.73	-1.721
255.10	-1.237
255.46	-0.627
255.83	-0.477
256.19	-0.232
256.55	-0.376
256.92	-0.204
257.28	-0.174
257.65	0.253
258.01	0.305
258.37	0.293
258.74	-0.077
259.10	-0.249
259.46	-0.536
259.83	-0.720
260.19	-0.890
260.55	-0.730
260.92	-0.856
261.28	-0.710
261.64	-1.001
262.01	-1.035
262.37	-0.928
262.73	-0.442
263.10	-0.334
263.46	-0.161
263.82	-0.044
264.19	0.017
264.55	-0.404
264.91	-0.276
265.28	-0.523
265.64	-0.472
266.00	-0.591
266.37	-0.895
266.73	-1.117
267.09	-1.075
267.46	-1.489
267.82	-1.650
268.18	-1.509
268.54	-1.343
268.91	-1.544
269.27	-1.465
269.63	-1.150
270.00	-0.953
270.36	-0.879
270.72	-0.744
271.08	-0.710
271.45	-0.367
271.81	-0.272
272.17	-0.311
272.53	-0.218
272.90	-0.070
273.26	-0.068
273.62	-0.388
273.98	-0.604
274.35	-0.730
274.71	-0.824
275.07	-0.860
275.43	-0.991
275.80	-0.814
276.16	-1.043
276.52	-1.205
276.88	-1.339
277.25	-1.473
277.61	-1.542
277.97	-1.581
278.33	-1.372
278.69	-1.443
279.06	-1.463
279.42	-1.450
279.78	-1.474
280.14	-1.194
280.50	-0.977
280.87	-0.793
281.23	-0.605
281.59	-0.372
281.95	-0.188
282.31	-0.176
282.68	-0.124
283.04	-0.079
283.40	-0.058
283.76	0.017
284.12	0.094
284.48	0.149
284.85	0.151
285.21	0.165
285.57	-0.080
285.93	-0.173
286.29	-0.372
286.65	-0.266
287.02	0.011
287.38	0.085
287.74	-0.126
288.10	-0.216
288.46	-0.444
288.82	-0.504
289.18	-0.463
289.54	-0.289
289.91	-0.080
290.27	0.223
290.63	0.414
290.99	0.293
291.35	0.221
291.71	0.445
292.07	0.312
292.43	0.388
292.79	0.211
293.16	0.027
293.52	0.062
293.88	-0.050
294.24	-0.217
294.60	-0.495
294.96	-0.642
295.32	-0.687
295.68	-0.814
296.04	-0.742
296.40	-0.634
296.76	-0.434
297.12	-0.422
297.49	-0.504
297.85	-0.629
298.21	-0.647
298.57	-0.704
298.93	-0.479
299.29	-0.531
299.65	-0.377
300.01	-0.466
300.37	-0.453
300.73	-0.344
301.09	-0.385
301.45	-0.396
301.81	-0.197
302.17	-0.131
302.53	-0.194
302.89	-0.408
303.25	-0.239
303.61	-0.361
303.97	-0.285
304.33	-0.351
304.69	-0.473
305.05	-0.315
305.41	-0.261
305.77	-0.248
306.13	-0.295
306.49	-0.287
306.85	-0.253
307.21	-0.310
307.57	-0.264
307.93	-0.205
308.29	-0.012
308.65	-0.004
309.01	0.000
309.37	0.059
309.73	0.029
310.09	0.194
310.45	0.318
310.81	0.385
311.17	0.389
311.53	0.414
311.89	0.461
312.25	0.227
312.61	0.118
312.96	0.045
313.32	-0.012
313.68	-0.158
314.04	-0.297
314.40	-0.310
314.76	-0.428
315.12	-0.439
315.48	-0.480
315.84	-0.567
316.20	-0.425
316.56	-0.436
316.92	-0.437
317.27	-0.537
317.63	-0.427
317.99	-0.495
318.35	-0.493
318.71	-0.376
319.07	-0.275
319.43	-0.166
319.79	-0.135
320.15	-0.314
320.50	-0.228
320.86	-0.266
321.22	-0.188
321.58	-0.290
321.94	-0.293
322.30	-0.407
322.66	-0.453
323.01	-0.574
323.37	-0.693
323.73	-0.742
324.09	-0.727
324.45	-0.694
324.81	-0.722
325.17	-0.698
325.52	-0.698
325.88	-0.676
326.24	-0.555
326.60	-0.625
326.96	-0.522
327.31	-0.491
327.67	-0.514
328.03	-0.497
328.39	-0.535
328.75	-0.470
329.11	-0.458
329.46	-0.318
329.82	-0.201
330.18	-0.167
330.54	-0.188
330.90	-0.279
331.25	-0.206
331.61	-0.142
331.97	-0.127
332.33	-0.094
332.68	-0.094
333.04	-0.196
333.40	-0.347
333.76	-0.469
334.11	-0.533
334.47	-0.461
334.83	-0.398
335.19	-0.469
335.54	-0.449
335.90	-0.441
336.26	-0.445
336.62	-0.465
336.97	-0.480
337.33	-0.499
337.69	-0.511
338.05	-0.522
338.40	-0.548
338.76	-0.578
339.12	-0.512
339.48	-0.608
339.83	-0.634
340.19	-0.691
340.55	-0.627
340.90	-0.631
341.26	-0.538
341.62	-0.507
341.97	-0.532
342.33	-0.538
342.69	-0.515
343.04	-0.583
343.40	-0.605
343.76	-0.665
344.12	-0.603
344.47	-0.613
344.83	-0.573
345.19	-0.582
345.54	-0.573
345.90	-0.528
346.26	-0.511
346.61	-0.503
346.97	-0.463
347.32	-0.449
347.68	-0.401
348.04	-0.448
348.39	-0.515
348.75	-0.527
349.11	-0.514
349.46	-0.555
349.82	-0.564
350.18	-0.594
350.53	-0.597
350.89	-0.610
351.24	-0.640
351.60	-0.636
351.96	-0.578
352.31	-0.530
352.67	-0.473
353.02	-0.548
353.38	-0.512
353.74	-0.519
354.09	-0.523
354.45	-0.520
354.80	-0.522
355.16	-0.456
355.52	-0.407
355.87	-0.480
356.23	-0.468
356.58	-0.482
356.94	-0.433
357.29	-0.453
357.65	-0.447
358.00	-0.434
358.36	-0.448
358.72	-0.507
359.07	-0.505
359.43	-0.513
359.78	-0.429
360.14	-0.449
360.49	-0.455
360.85	-0.430
361.20	-0.449
361.56	-0.474
361.91	-0.433
362.27	-0.443
362.62	-0.394
362.98	-0.382
363.33	-0.376
363.69	-0.454
364.04	-0.426
364.40	-0.427
364.75	-0.431
365.11	-0.398
365.46	-0.403
365.82	-0.436
366.17	-0.457
366.53	-0.455
366.88	-0.439
367.24	-0.476
367.59	-0.451
367.95	-0.444
368.30	-0.434
368.66	-0.447
369.01	-0.435
369.37	-0.403
369.72	-0.329
370.08	-0.236
370.43	-0.212
370.78	-0.231
371.14	-0.217
371.49	-0.191
371.85	-0.189
372.20	-0.182
372.56	-0.156
372.91	-0.161
373.26	-0.114
373.62	-0.188
373.97	-0.198
374.33	-0.208
374.68	-0.185
375.03	-0.151
375.39	-0.153
375.74	-0.165
376.10	-0.140
376.45	-0.129
376.80	-0.086
377.16	-0.141
377.51	-0.075
377.87	-0.076
378.22	-0.094
378.57	-0.095
378.93	-0.067
379.28	-0.017
379.63	0.004
379.99	0.057
380.34	0.062
380.70	0.048
381.05	0.133
381.40	0.135
381.76	0.179
382.11	0.226
382.46	0.299
382.82	0.351
383.17	0.351
383.52	0.376
383.88	0.349
384.23	0.373
384.58	0.426
384.94	0.434
385.29	0.476
385.64	0.505
385.99	0.580
386.35	0.602
386.70	0.616
387.05	0.602
387.41	0.618
387.76	0.647
388.11	0.698
388.47	0.708
388.82	0.760
389.17	0.772
389.52	0.797
389.88	0.839
390.23	0.875
390.58	0.920
390.93	0.995
391.29	1.049
391.64	1.114
391.99	1.189
392.34	1.253
392.70	1.255
393.05	1.294
393.40	1.320
393.75	1.345
394.11	1.374
394.46	1.367
394.81	1.415
395.16	1.427
395.52	1.454
395.87	1.417
396.22	1.445
396.57	1.465
396.92	1.467
397.28	1.466
397.63	1.452
397.98	1.472
398.33	1.516
398.68	1.518
399.04	1.575
399.39	1.585
399.74	1.622
400.09	1.648
400.44	1.707
400.80	1.755
401.15	1.793
401.50	1.831
401.85	1.859
402.20	1.855
402.55	1.912
402.90	1.899
403.26	1.932
403.61	1.954
403.96	1.951
404.31	1.982
404.66	2.008
405.01	2.032
405.36	2.034
405.72	2.041
406.07	2.075
406.42	2.063
406.77	2.090
407.12	2.108
407.47	2.129
407.82	2.176
408.17	2.170
408.53	2.157
408.88	2.154
409.23	2.178
409.58	2.178
409.93	2.219
410.28	2.226
410.63	2.228
410.98	2.211
411.33	2.219
411.68	2.214
412.03	2.255
412.38	2.243
412.73	2.285
413.09	2.314
413.44	2.362
413.79	2.356
414.14	2.397
414.49	2.466
414.84	2.505
415.19	2.538
415.54	2.577
415.89	2.592
416.24	2.668
416.59	2.690
416.94	2.709
417.29	2.732
417.64	2.739
417.99	2.763
418.34	2.769
418.69	2.789
419.04	2.788
419.39	2.800
419.74	2.801
420.09	2.809
420.44	2.814
420.79	2.818
421.14	2.821
421.49	2.851
421.84	2.847
422.19	2.846
422.54	2.838
422.89	2.838
423.24	2.838
423.59	2.824
423.94	2.805
424.29	2.795
424.64	2.794
424.99	2.775
425.34	2.743
425.68	2.736
426.03	2.707
426.38	2.706
426.73	2.704
427.08	2.665
427.43	2.679
427.78	2.711
428.13	2.696
428.48	2.685
428.83	2.680
429.18	2.669
429.53	2.664
429.87	2.664
430.22	2.654
430.57	2.670
430.92	2.677
431.27	2.680
431.62	2.625
431.97	2.623
432.32	2.620
432.67	2.608
433.01	2.606
433.36	2.586
433.71	2.591
434.06	2.571
434.41	2.543
434.76	2.560
435.11	2.563
435.45	2.586
435.80	2.587
436.15	2.589
436.50	2.620
436.85	2.639
437.20	2.640
437.54	2.641
437.89	2.666
438.24	2.684
438.59	2.676
438.94	2.671
439.29	2.671
439.63	2.695
439.98	2.700
440.33	2.687
440.68	2.708
441.03	2.740
441.37	2.746
441.72	2.754
442.07	2.768
442.42	2.782
442.76	2.810
443.11	2.837
443.46	2.856
443.81	2.887
444.16	2.911
444.50	2.917
444.85	2.928
445.20	2.947
445.55	2.966
445.89	2.984
446.24	3.003
446.59	2.983
446.94	2.990
447.28	2.987
447.63	2.977
447.98	2.981
448.32	2.986
448.67	2.977
449.02	2.986
449.37	2.983
449.71	2.996
450.06	2.989
450.41	3.037
450.75	3.040
451.10	3.046
451.45	3.043
451.79	3.043
452.14	3.040
452.49	3.063
452.84	3.070
453.18	3.073
453.53	3.050
453.88	3.068
454.22	3.048
454.57	3.066
454.92	3.091
455.26	3.142
455.61	3.188
455.95	3.217
456.30	3.213
456.65	3.252
456.99	3.286
457.34	3.327
457.69	3.343
458.03	3.369
458.38	3.383
458.73	3.383
459.07	3.366
459.42	3.342
459.76	3.324
460.11	3.314
460.46	3.271
460.80	3.241
461.15	3.210
461.49	3.188
461.84	3.161
462.19	3.128
462.53	3.107
462.88	3.118
463.22	3.098
463.57	3.096
463.91	3.104
464.26	3.131
464.61	3.132
464.95	3.116
465.30	3.102
465.64	3.115
465.99	3.113
466.33	3.117
466.68	3.088
467.02	3.100
467.37	3.082
467.71	3.075
468.06	3.050
468.41	3.046
468.75	3.049
469.10	3.054
469.44	3.019
469.79	3.003
470.13	2.970
470.48	2.970
470.82	2.945
471.17	2.960
471.51	2.945
471.86	2.945
472.20	2.934
472.55	2.935
472.89	2.935
473.23	2.935
473.58	2.935
473.92	2.953
474.27	2.935
474.61	2.930
474.96	2.940
475.30	2.954
475.65	2.949
475.99	2.950
476.34	2.941
476.68	2.932
477.02	2.952
477.37	2.962
477.71	2.996
478.06	3.055
478.40	3.131
478.75	3.196
479.09	3.290
479.43	3.397
479.78	3.523
480.12	3.645
480.47	3.770
480.81	3.882
481.15	3.991
481.50	4.097
481.84	4.216
482.19	4.330
482.53	4.437
482.87	4.506
483.22	4.522
483.56	4.485
483.90	4.417
484.25	4.337
484.59	4.247
484.94	4.164
485.28	4.082
485.62	3.987
485.97	3.889
486.31	3.804
486.65	3.745
487.00	3.726
487.34	3.743
487.68	3.772
488.03	3.800
488.37	3.842
488.71	3.873
489.06	3.883
489.40	3.891
489.74	3.899
490.09	3.895
490.43	3.888
490.77	3.881
491.11	3.863
491.46	3.858
491.80	3.853
492.14	3.827
492.49	3.825
492.83	3.827
493.17	3.819
493.51	3.803
493.86	3.808
494.20	3.824
494.54	3.856
494.88	3.902
495.23	3.951
495.57	3.992
495.91	4.067
496.25	4.115
496.60	4.162
496.94	4.204
497.28	4.276
497.62	4.324
497.97	4.374
498.31	4.423
498.65	4.483
498.99	4.531
499.33	4.625
499.68	4.703
500.02	4.775
500.36	4.847
500.70	4.934
501.04	5.007
501.39	5.088
501.73	5.171
502.07	5.276
502.41	5.355
502.75	5.466
503.09	5.554
503.44	5.634
503.78	5.724
504.12	5.834
504.46	5.935
504.80	6.054
505.14	6.196
505.49	6.329
505.83	6.437
506.17	6.579
506.51	6.687
506.85	6.817
507.19	6.950
507.53	7.092
507.87	7.226
508.22	7.343
508.56	7.444
508.90	7.541
509.24	7.667
509.58	7.801
509.92	7.928
510.26	8.065
510.60	8.174
510.94	8.297
511.28	8.403
511.63	8.533
511.97	8.675
512.31	8.842
512.65	8.978
512.99	9.114
513.33	9.294
513.67	9.462
514.01	9.649
514.35	9.859
514.69	10.059
515.03	10.245
515.37	10.418
515.71	10.602
516.05	10.752
516.39	10.922
516.73	11.061
517.07	11.183
517.41	11.293
517.75	11.402
518.09	11.503
518.43	11.611
518.77	11.713
519.11	11.825
519.45	11.919
519.79	12.061
520.13	12.170
520.47	12.324
520.81	12.469
521.15	12.645
521.49	12.797
521.83	12.964
522.17	13.121
522.51	13.311
522.85	13.488
523.19	13.703
523.53	13.943
523.87	14.214
524.21	14.463
524.55	14.716
524.89	14.927
525.23	15.166
525.57	15.355
525.91	15.539
526.25	15.699
526.58	15.866
526.92	15.995
527.26	16.079
527.60	16.126
527.94	16.172
528.28	16.184
528.62	16.205
528.96	16.196
529.30	16.195
529.64	16.198
529.97	16.203
530.31	16.181
530.65	16.193
530.99	16.209
531.33	16.262
531.67	16.297
532.01	16.351
532.35	16.386
532.68	16.416
533.02	16.441
533.36	16.447
533.70	16.443
534.04	16.452
534.38	16.446
534.71	16.455
535.05	16.437
535.39	16.444
535.73	16.449
536.07	16.462
536.41	16.494
536.74	16.536
537.08	16.572
537.42	16.649
537.76	16.705
538.10	16.785
538.43	16.848
538.77	16.931
539.11	17.006
539.45	17.050
539.79	17.102
540.12	17.145
540.46	17.166
540.80	17.180
541.14	17.172
541.47	17.134
541.81	17.100
542.15	17.076
542.49	17.032
542.82	16.973
543.16	16.945
543.50	16.894
543.84	16.840
544.17	16.813
544.51	16.787
544.85	16.763
545.18	16.797
545.52	16.793
545.86	16.778
546.20	16.787
546.53	16.784
546.87	16.753
547.21	16.739
547.54	16.706
547.88	16.683
548.22	16.660
548.55	16.655
548.89	16.633
549.23	16.623
549.56	16.620
549.90	16.632
550.24	16.621
550.57	16.636
550.91	16.637
551.25	16.657
551.58	16.640
551.92	16.641
552.26	16.597
552.59	16.595
552.93	16.559
553.27	16.540
553.60	16.502
553.94	16.476
554.27	16.460
554.61	16.447
554.95	16.399
555.28	16.374
555.62	16.342
555.95	16.364
556.29	16.327
556.63	16.312
556.96	16.289
557.30	16.255
557.63	16.214
557.97	16.153
558.31	16.074
558.64	16.022
558.98	15.983
559.31	15.953
559.65	15.890
559.98	15.835
560.32	15.780
560.65	15.700
560.99	15.634
561.33	15.572
561.66	15.498
562.00	15.459
562.33	15.419
562.67	15.379
563.00	15.297
563.34	15.240
563.67	15.180
564.01	15.116
564.34	15.060
564.68	14.975
565.01	14.930
565.35	14.880
565.68	14.804
566.02	14.726
566.35	14.630
566.69	14.558
567.02	14.497
567.36	14.407
567.69	14.331
568.03	14.257
568.36	14.195
568.69	14.095
569.03	14.004
569.36	13.927
569.70	13.852
570.03	13.795
570.37	13.736
570.70	13.660
571.04	13.614
571.37	13.527
571.70	13.460
572.04	13.386
572.37	13.340
572.71	13.273
573.04	13.203
573.37	13.135
573.71	13.069
574.04	12.982
574.38	12.885
574.71	12.801
575.04	12.749
575.38	12.673
575.71	12.603
576.05	12.521
576.38	12.436
576.71	12.357
577.05	12.270
577.38	12.197
577.71	12.135
578.05	12.051
578.38	11.972
578.71	11.882
579.05	11.786
579.38	11.694
579.71	11.614
580.05	11.563
580.38	11.508
580.71	11.474
581.05	11.405
581.38	11.341
581.71	11.317
582.05	11.274
582.38	11.233
582.71	11.167
583.04	11.147
583.38	11.098
583.71	11.071
584.04	11.032
584.38	10.996
584.71	10.945
585.04	10.910
585.37	10.867
585.71	10.853
586.04	10.839
586.37	10.875
586.70	10.857
587.04	10.838
587.37	10.836
587.70	10.810
588.03	10.786
588.37	10.785
588.70	10.753
589.03	10.719
589.36	10.670
589.69	10.631
590.03	10.568
590.36	10.519
590.69	10.470
591.02	10.405
591.35	10.385
591.69	10.358
592.02	10.322
592.35	10.307
592.68	10.313
593.01	10.298
593.35	10.285
593.68	10.284
594.01	10.292
594.34	10.269
594.67	10.236
595.00	10.215
595.34	10.154
595.67	10.111
596.00	10.070
596.33	10.010
596.66	9.958
596.99	9.898
597.32	9.836
597.65	9.765
597.99	9.739
598.32	9.680
598.65	9.638
598.98	9.619
599.31	9.608
599.64	9.583
599.97	9.541
600.30	9.524
600.63	9.541
600.96	9.561
601.30	9.575
601.63	9.587
601.96	9.605
602.29	9.575
602.62	9.561
602.95	9.525
603.28	9.503
603.61	9.472
603.94	9.442
604.27	9.391
604.60	9.307
604.93	9.247
605.26	9.177
605.59	9.110
605.92	9.063
606.25	9.021
606.58	8.974
606.91	8.921
607.24	8.900
607.57	8.873
607.90	8.833
608.23	8.794
608.56	8.734
608.89	8.688
609.22	8.665
609.55	8.599
609.88	8.531
610.21	8.474
610.54	8.420
610.87	8.354
611.20	8.244
611.53	8.171
611.86	8.106
612.19	8.025
612.52	7.960
612.85	7.903
613.18	7.866
613.51	7.786
613.84	7.699
614.17	7.640
614.49	7.579
614.82	7.546
615.15	7.504
615.48	7.480
615.81	7.433
616.14	7.375
616.47	7.295
616.80	7.249
617.13	7.212
617.46	7.184
617.78	7.134
618.11	7.078
618.44	7.057
618.77	7.016
619.10	6.953
619.43	6.943
619.76	6.894
620.09	6.902
620.41	6.871
620.74	6.895
621.07	6.906
621.40	6.901
621.73	6.914
622.06	6.913
622.38	6.900
622.71	6.906
623.04	6.923
623.37	6.995
623.70	6.967
624.02	7.013
624.35	7.029
624.68	7.031
625.01	7.055
625.34	7.098
625.66	7.115
625.99	7.131
626.32	7.162
626.65	7.154
626.98	7.091
627.30	7.098
627.63	7.050
627.96	6.997
628.29	6.974
628.61	6.926
628.94	6.861
629.27	6.766
629.60	6.688
629.92	6.651
630.25	6.598
630.58	6.593
630.91	6.561
631.23	6.520
631.56	6.473
631.89	6.420
632.21	6.385
632.54	6.336
632.87	6.310
633.19	6.265
633.52	6.215
633.85	6.193
634.18	6.127
634.50	6.051
634.83	5.985
635.16	5.910
635.48	5.816
635.81	5.758
636.14	5.655
636.46	5.568
636.79	5.491
637.11	5.353
637.44	5.230
637.77	5.138
638.09	5.039
638.42	4.955
638.75	4.878
639.07	4.824
639.40	4.733
639.73	4.676
640.05	4.601
640.38	4.572
640.70	4.507
641.03	4.455
641.36	4.353
641.68	4.316
642.01	4.234
642.33	4.167
642.66	4.084
642.98	3.995
643.31	3.952
643.64	3.926
