OOIBase32 Version 2.0.0.6 Data File
++++++++++++++++++++++++++++++++++++
Date: 01-23-2012, 23:05:31
User: Valued Ocean Optics Customer
Spectrometer Serial Number: USB2E2917
Spectrometer Channel: Master
Integration Time (msec): 5
Spectra Averaged: 10
Boxcar Smoothing: 5
Correct for Electrical Dark: Enabled
Time Normalized: Disabled
Dual-beam Reference: Disabled
Reference Channel: Master
Temperature: Not acquired
Spectrometer Type: S2000
ADC Type: USB2000
Number of Pixels in File: 2048
Graph Title: 
>>>>>Begin Spectral Data<<<<<
180.30	0.000
180.67	0.000
181.03	380.826
181.40	339.749
181.77	-4972.630
182.14	26.724
182.51	-580.833
182.88	355.416
183.25	94.101
183.62	-23.844
183.99	407.377
184.36	129.995
184.73	101.588
185.10	49.897
185.46	208.503
185.83	-166.589
186.20	2217.356
186.57	188.057
186.94	69.474
187.31	5.867
187.68	0.341
188.05	-33.322
188.42	-12.321
188.78	-65.915
189.15	-105.046
189.52	96.573
189.89	74.129
190.26	101.789
190.63	74.790
191.00	70.392
191.37	63.143
191.73	59.387
192.10	61.083
192.47	55.632
192.84	47.878
193.21	56.274
193.58	44.269
193.94	32.837
194.31	27.105
194.68	22.078
195.05	13.420
195.42	2.913
195.79	-3.014
196.15	-16.599
196.52	-19.495
196.89	-32.017
197.26	-63.961
197.63	-33.339
198.00	-24.274
198.36	-30.704
198.73	-61.106
199.10	-49.892
199.47	-40.397
199.84	-32.235
200.20	-20.168
200.57	-15.276
200.94	-9.967
201.31	9.682
201.68	-3.039
202.04	-1.722
202.41	1.131
202.78	0.701
203.15	-8.736
203.51	-9.523
203.88	-12.565
204.25	-24.327
204.62	-45.708
204.98	-41.525
205.35	-47.496
205.72	-42.964
206.09	-25.908
206.46	-77.913
206.82	-62.010
207.19	-34.091
207.56	-64.015
207.92	-67.742
208.29	-58.007
208.66	-3.491
209.03	-6.625
209.39	18.479
209.76	24.972
210.13	-1.672
210.50	8.370
210.86	25.913
211.23	22.121
211.60	42.463
211.96	51.332
212.33	57.066
212.70	35.106
213.07	30.915
213.43	22.121
213.80	15.488
214.17	22.077
214.53	22.499
214.90	19.013
215.27	24.161
215.63	15.692
216.00	17.249
216.37	3.132
216.74	-1.885
217.10	4.495
217.47	-1.547
217.84	-0.243
218.20	2.517
218.57	9.279
218.94	12.642
219.30	6.231
219.67	4.144
220.04	7.837
220.40	14.128
220.77	16.157
221.13	19.301
221.50	19.815
221.87	18.302
222.23	15.951
222.60	7.513
222.97	4.018
223.33	6.616
223.70	2.639
224.07	-5.265
224.43	-7.992
224.80	-3.152
225.16	-6.521
225.53	-5.997
225.90	-6.346
226.26	-4.043
226.63	-2.106
226.99	-1.643
227.36	-1.117
227.73	1.239
228.09	1.933
228.46	3.255
228.82	3.148
229.19	3.148
229.56	5.477
229.92	7.613
230.29	7.224
230.65	6.213
231.02	3.649
231.38	-0.508
231.75	-2.704
232.12	-0.222
232.48	-1.091
232.85	-2.390
233.21	-0.770
233.58	-5.253
233.94	-5.845
234.31	-6.254
234.68	-3.811
235.04	-2.290
235.41	0.851
235.77	2.722
236.14	1.893
236.50	2.681
236.87	2.868
237.23	2.483
237.60	2.460
237.96	2.269
238.33	1.548
238.69	0.719
239.06	1.380
239.42	0.840
239.79	-0.056
240.15	-0.418
240.52	-0.407
240.88	-0.407
241.25	-0.484
241.61	0.215
241.98	-0.014
242.34	-0.079
242.71	-0.036
243.07	0.405
243.44	0.371
243.80	0.725
244.17	0.800
244.53	0.296
244.90	0.369
245.26	0.587
245.63	0.374
245.99	0.214
246.36	0.136
246.72	0.435
247.09	-0.158
247.45	0.059
247.81	0.216
248.18	-0.121
248.54	0.397
248.91	0.071
249.27	0.165
249.64	0.384
250.00	0.602
250.36	0.679
250.73	0.351
251.09	0.805
251.46	0.792
251.82	0.435
252.19	0.883
252.55	0.428
252.91	1.074
253.28	0.782
253.64	0.512
254.01	0.871
254.37	1.483
254.73	1.649
255.10	1.736
255.46	2.032
255.83	1.815
256.19	1.704
256.55	1.893
256.92	1.959
257.28	1.997
257.65	1.887
258.01	1.756
258.37	1.531
258.74	1.274
259.10	0.945
259.46	0.716
259.83	0.896
260.19	0.974
260.55	0.968
260.92	0.720
261.28	0.541
261.64	0.681
262.01	0.741
262.37	0.786
262.73	1.119
263.10	1.588
263.46	1.727
263.82	1.542
264.19	1.621
264.55	1.373
264.91	1.075
265.28	1.092
265.64	1.017
266.00	1.124
266.37	1.306
266.73	1.071
267.09	1.045
267.46	0.970
267.82	0.803
268.18	0.598
268.54	0.579
268.91	0.652
269.27	0.544
269.63	0.794
270.00	0.618
270.36	0.393
270.72	0.556
271.08	0.500
271.45	0.354
271.81	0.463
272.17	0.471
272.53	0.552
272.90	0.784
273.26	0.957
273.62	0.556
273.98	0.675
274.35	0.830
274.71	1.024
275.07	0.999
275.43	1.181
275.80	1.330
276.16	1.259
276.52	1.075
276.88	0.760
277.25	0.544
277.61	0.471
277.97	0.171
278.33	0.200
278.69	-0.171
279.06	-0.042
279.42	-0.025
279.78	-0.120
280.14	-0.024
280.50	0.188
280.87	0.280
281.23	0.409
281.59	0.675
281.95	0.891
282.31	0.898
282.68	0.898
283.04	0.713
283.40	0.909
283.76	1.004
284.12	1.154
284.48	1.289
284.85	1.496
285.21	1.562
285.57	1.545
285.93	1.510
286.29	1.350
286.65	1.500
287.02	1.839
287.38	1.514
287.74	1.467
288.10	1.551
288.46	1.438
288.82	1.316
289.18	1.319
289.54	1.247
289.91	1.185
290.27	1.405
290.63	1.416
290.99	1.310
291.35	1.560
291.71	1.729
292.07	1.362
292.43	1.290
292.79	1.290
293.16	1.119
293.52	1.298
293.88	1.490
294.24	1.478
294.60	1.350
294.96	1.238
295.32	1.231
295.68	1.120
296.04	1.272
296.40	1.363
296.76	1.338
297.12	1.281
297.49	1.051
297.85	0.837
298.21	0.813
298.57	0.748
298.93	0.760
299.29	0.489
299.65	0.464
300.01	0.366
300.37	0.411
300.73	0.455
301.09	0.617
301.45	0.848
301.81	1.031
302.17	1.044
302.53	1.079
302.89	1.055
303.25	1.280
303.61	1.323
303.97	1.270
304.33	1.239
304.69	1.304
305.05	1.234
305.41	1.110
305.77	1.005
306.13	0.972
306.49	1.002
306.85	1.067
307.21	0.992
307.57	0.997
307.93	1.091
308.29	1.040
308.65	0.996
309.01	1.026
309.37	0.992
309.73	1.082
310.09	1.187
310.45	1.248
310.81	1.137
311.17	1.067
311.53	1.003
311.89	1.057
312.25	1.054
312.61	1.005
312.96	1.159
313.32	1.289
313.68	1.193
314.04	1.122
314.40	1.068
314.76	1.096
315.12	1.130
315.48	1.231
315.84	1.154
316.20	1.185
316.56	1.219
316.92	1.027
317.27	0.990
317.63	0.961
317.99	0.951
318.35	0.985
318.71	0.985
319.07	1.069
319.43	1.063
319.79	1.177
320.15	1.169
320.50	1.208
320.86	1.193
321.22	1.117
321.58	1.109
321.94	0.992
322.30	0.990
322.66	1.006
323.01	0.876
323.37	0.786
323.73	0.659
324.09	0.646
324.45	0.752
324.81	0.721
325.17	0.823
325.52	0.871
325.88	0.875
326.24	0.909
326.60	0.936
326.96	1.000
327.31	0.858
327.67	0.845
328.03	0.790
328.39	0.593
328.75	0.720
329.11	0.666
329.46	0.683
329.82	0.724
330.18	0.702
330.54	0.633
330.90	0.584
331.25	0.674
331.61	0.749
331.97	0.775
332.33	0.821
332.68	0.775
333.04	0.706
333.40	0.595
333.76	0.579
334.11	0.523
334.47	0.531
334.83	0.463
335.19	0.505
335.54	0.439
335.90	0.440
336.26	0.412
336.62	0.376
336.97	0.387
337.33	0.342
337.69	0.328
338.05	0.252
338.40	0.325
338.76	0.379
339.12	0.454
339.48	0.457
339.83	0.502
340.19	0.573
340.55	0.609
340.90	0.609
341.26	0.605
341.62	0.572
341.97	0.622
342.33	0.574
342.69	0.694
343.04	0.666
343.40	0.645
343.76	0.580
344.12	0.480
344.47	0.534
344.83	0.620
345.19	0.737
345.54	0.857
345.90	0.908
346.26	0.994
346.61	1.036
346.97	1.019
347.32	1.080
347.68	1.079
348.04	1.119
348.39	1.057
348.75	1.027
349.11	0.953
349.46	0.847
349.82	0.848
350.18	0.796
350.53	0.758
350.89	0.747
351.24	0.727
351.60	0.743
351.96	0.820
352.31	0.777
352.67	0.785
353.02	0.804
353.38	0.824
353.74	0.840
354.09	0.791
354.45	0.761
354.80	0.729
355.16	0.783
355.52	0.787
355.87	0.732
356.23	0.816
356.58	0.854
356.94	0.905
357.29	0.957
357.65	0.976
358.00	1.036
358.36	1.062
358.72	1.123
359.07	1.106
359.43	1.163
359.78	1.205
360.14	1.219
360.49	1.179
360.85	1.195
361.20	1.149
361.56	1.112
361.91	1.119
362.27	1.148
362.62	1.123
362.98	1.135
363.33	1.101
363.69	1.062
364.04	1.083
364.40	1.104
364.75	1.076
365.11	1.066
365.46	1.043
365.82	1.073
366.17	1.078
366.53	1.143
366.88	1.104
367.24	1.145
367.59	1.201
367.95	1.199
368.30	1.227
368.66	1.297
369.01	1.350
369.37	1.440
369.72	1.467
370.08	1.503
370.43	1.521
370.78	1.584
371.14	1.566
371.49	1.558
371.85	1.570
372.20	1.635
372.56	1.620
372.91	1.643
373.26	1.643
373.62	1.595
373.97	1.627
374.33	1.618
374.68	1.631
375.03	1.678
375.39	1.669
375.74	1.650
376.10	1.624
376.45	1.629
376.80	1.668
377.16	1.673
377.51	1.734
377.87	1.731
378.22	1.692
378.57	1.684
378.93	1.740
379.28	1.846
379.63	1.903
379.99	1.967
380.34	2.006
380.70	2.011
381.05	2.068
381.40	2.090
381.76	2.150
382.11	2.254
382.46	2.307
382.82	2.309
383.17	2.282
383.52	2.300
383.88	2.271
384.23	2.315
384.58	2.342
384.94	2.352
385.29	2.387
385.64	2.382
385.99	2.397
386.35	2.440
386.70	2.480
387.05	2.482
387.41	2.499
387.76	2.499
388.11	2.499
388.47	2.513
388.82	2.567
389.17	2.573
389.52	2.625
389.88	2.663
390.23	2.672
390.58	2.709
390.93	2.766
391.29	2.806
391.64	2.869
391.99	2.957
392.34	3.010
392.70	3.013
393.05	3.041
393.40	3.047
393.75	3.054
394.11	3.077
394.46	3.055
394.81	3.086
395.16	3.079
395.52	3.118
395.87	3.086
396.22	3.097
396.57	3.091
396.92	3.143
397.28	3.117
397.63	3.126
397.98	3.125
398.33	3.195
398.68	3.200
399.04	3.235
399.39	3.231
399.74	3.242
400.09	3.278
400.44	3.329
400.80	3.338
401.15	3.379
401.50	3.416
401.85	3.467
402.20	3.447
402.55	3.497
402.90	3.504
403.26	3.549
403.61	3.582
403.96	3.582
404.31	3.587
404.66	3.590
405.01	3.578
405.36	3.609
405.72	3.628
406.07	3.653
406.42	3.637
406.77	3.663
407.12	3.652
407.47	3.699
407.82	3.736
408.17	3.761
408.53	3.774
408.88	3.801
409.23	3.784
409.58	3.790
409.93	3.829
410.28	3.859
410.63	3.879
410.98	3.918
411.33	3.900
411.68	3.926
412.03	3.990
412.38	4.032
412.73	4.096
413.09	4.153
413.44	4.198
413.79	4.176
414.14	4.220
414.49	4.275
414.84	4.318
415.19	4.368
415.54	4.399
415.89	4.393
416.24	4.441
416.59	4.471
416.94	4.483
417.29	4.504
417.64	4.559
417.99	4.595
418.34	4.608
418.69	4.618
419.04	4.631
419.39	4.650
419.74	4.670
420.09	4.682
420.44	4.690
420.79	4.703
421.14	4.710
421.49	4.724
421.84	4.707
422.19	4.727
422.54	4.722
422.89	4.733
423.24	4.729
423.59	4.721
423.94	4.694
424.29	4.689
424.64	4.699
424.99	4.686
425.34	4.654
425.68	4.660
426.03	4.627
426.38	4.634
426.73	4.615
427.08	4.602
427.43	4.608
427.78	4.628
428.13	4.616
428.48	4.610
428.83	4.618
429.18	4.640
429.53	4.632
429.87	4.626
430.22	4.601
430.57	4.614
430.92	4.597
431.27	4.605
431.62	4.591
431.97	4.590
432.32	4.584
432.67	4.586
433.01	4.561
433.36	4.559
433.71	4.564
434.06	4.580
434.41	4.566
434.76	4.598
435.11	4.608
435.45	4.630
435.80	4.650
436.15	4.668
436.50	4.690
436.85	4.730
437.20	4.736
437.54	4.729
437.89	4.749
438.24	4.776
438.59	4.786
438.94	4.788
439.29	4.781
439.63	4.797
439.98	4.807
440.33	4.800
440.68	4.823
441.03	4.870
441.37	4.931
441.72	4.955
442.07	4.981
442.42	5.013
442.76	5.062
443.11	5.116
443.46	5.155
443.81	5.189
444.16	5.239
444.50	5.264
444.85	5.277
445.20	5.290
445.55	5.323
445.89	5.338
446.24	5.359
446.59	5.366
446.94	5.386
447.28	5.404
447.63	5.421
447.98	5.441
448.32	5.453
448.67	5.486
449.02	5.504
449.37	5.513
449.71	5.549
450.06	5.562
450.41	5.587
450.75	5.605
451.10	5.628
451.45	5.638
451.79	5.622
452.14	5.646
452.49	5.651
452.84	5.668
453.18	5.686
453.53	5.684
453.88	5.699
454.22	5.724
454.57	5.735
454.92	5.734
455.26	5.756
455.61	5.812
455.95	5.840
456.30	5.859
456.65	5.888
456.99	5.903
457.34	5.915
457.69	5.928
458.03	5.921
458.38	5.928
458.73	5.939
459.07	5.949
459.42	5.919
459.76	5.889
460.11	5.863
460.46	5.823
460.80	5.797
461.15	5.784
461.49	5.772
461.84	5.773
462.19	5.747
462.53	5.740
462.88	5.717
463.22	5.715
463.57	5.711
463.91	5.722
464.26	5.756
464.61	5.762
464.95	5.754
465.30	5.746
465.64	5.752
465.99	5.760
466.33	5.771
466.68	5.756
467.02	5.760
467.37	5.752
467.71	5.729
468.06	5.714
468.41	5.720
468.75	5.728
469.10	5.735
469.44	5.718
469.79	5.703
470.13	5.659
470.48	5.681
470.82	5.672
471.17	5.679
471.51	5.684
471.86	5.684
472.20	5.676
472.55	5.685
472.89	5.688
473.23	5.680
473.58	5.694
473.92	5.716
474.27	5.726
474.61	5.746
474.96	5.760
475.30	5.792
475.65	5.792
475.99	5.794
476.34	5.814
476.68	5.811
477.02	5.830
477.37	5.843
477.71	5.885
478.06	5.920
478.40	6.005
478.75	6.106
479.09	6.202
479.43	6.321
479.78	6.484
480.12	6.623
480.47	6.775
480.81	6.922
481.15	7.062
481.50	7.218
481.84	7.387
482.19	7.543
482.53	7.681
482.87	7.771
483.22	7.788
483.56	7.709
483.90	7.594
484.25	7.451
484.59	7.298
484.94	7.171
485.28	7.031
485.62	6.884
485.97	6.724
486.31	6.595
486.65	6.505
487.00	6.475
487.34	6.509
487.68	6.568
488.03	6.645
488.37	6.733
488.71	6.786
489.06	6.820
489.40	6.837
489.74	6.853
490.09	6.853
490.43	6.847
490.77	6.854
491.11	6.845
491.46	6.849
491.80	6.850
492.14	6.850
492.49	6.868
492.83	6.879
493.17	6.887
493.51	6.916
493.86	6.940
494.20	7.007
494.54	7.065
494.88	7.143
495.23	7.225
495.57	7.302
495.91	7.386
496.25	7.456
496.60	7.531
496.94	7.618
497.28	7.699
497.62	7.791
497.97	7.867
498.31	7.963
498.65	8.058
498.99	8.141
499.33	8.272
499.68	8.390
500.02	8.515
500.36	8.628
500.70	8.754
501.04	8.863
501.39	8.965
501.73	9.083
502.07	9.213
502.41	9.329
502.75	9.486
503.09	9.591
503.44	9.699
503.78	9.801
504.12	9.924
504.46	10.051
504.80	10.193
505.14	10.353
505.49	10.506
505.83	10.637
506.17	10.796
506.51	10.927
506.85	11.091
507.19	11.237
507.53	11.400
507.87	11.564
508.22	11.706
508.56	11.856
508.90	11.991
509.24	12.125
509.58	12.274
509.92	12.420
510.26	12.567
510.60	12.720
510.94	12.884
511.28	13.037
511.63	13.178
511.97	13.347
512.31	13.510
512.65	13.718
512.99	13.914
513.33	14.141
513.67	14.363
514.01	14.612
514.35	14.824
514.69	15.050
515.03	15.265
515.37	15.474
515.71	15.663
516.05	15.843
516.39	15.995
516.73	16.167
517.07	16.300
517.41	16.417
517.75	16.510
518.09	16.623
518.43	16.735
518.77	16.835
519.11	16.964
519.45	17.086
519.79	17.234
520.13	17.379
520.47	17.532
520.81	17.684
521.15	17.858
521.49	18.054
521.83	18.264
522.17	18.441
522.51	18.663
522.85	18.887
523.19	19.152
523.53	19.427
523.87	19.708
524.21	19.999
524.55	20.270
524.89	20.517
525.23	20.749
525.57	20.931
525.91	21.140
526.25	21.304
526.58	21.462
526.92	21.575
527.26	21.646
527.60	21.671
527.94	21.701
528.28	21.713
528.62	21.718
528.96	21.708
529.30	21.704
529.64	21.661
529.97	21.643
530.31	21.604
530.65	21.594
530.99	21.611
531.33	21.674
531.67	21.692
532.01	21.710
532.35	21.741
532.68	21.748
533.02	21.740
533.36	21.748
533.70	21.731
534.04	21.728
534.38	21.729
534.71	21.716
535.05	21.700
535.39	21.701
535.73	21.742
536.07	21.751
536.41	21.791
536.74	21.865
537.08	21.936
537.42	22.025
537.76	22.090
538.10	22.152
538.43	22.225
538.77	22.296
539.11	22.357
539.45	22.397
539.79	22.445
540.12	22.458
540.46	22.465
540.80	22.460
541.14	22.425
541.47	22.387
541.81	22.348
542.15	22.319
542.49	22.282
542.82	22.203
543.16	22.132
543.50	22.072
543.84	22.058
544.17	22.033
544.51	22.012
544.85	21.998
545.18	22.010
545.52	21.990
545.86	21.964
546.20	21.946
546.53	21.974
546.87	21.979
547.21	21.985
547.54	21.939
547.88	21.934
548.22	21.915
548.55	21.917
548.89	21.917
549.23	21.924
549.56	21.912
549.90	21.916
550.24	21.910
550.57	21.924
550.91	21.887
551.25	21.910
551.58	21.884
551.92	21.885
552.26	21.884
552.59	21.861
552.93	21.851
553.27	21.862
553.60	21.863
553.94	21.822
554.27	21.783
554.61	21.793
554.95	21.764
555.28	21.766
555.62	21.737
555.95	21.718
556.29	21.704
556.63	21.659
556.96	21.627
557.30	21.570
557.63	21.550
557.97	21.507
558.31	21.441
558.64	21.380
558.98	21.329
559.31	21.306
559.65	21.259
559.98	21.203
560.32	21.163
560.65	21.079
560.99	20.988
561.33	20.944
561.66	20.884
562.00	20.841
562.33	20.798
562.67	20.752
563.00	20.683
563.34	20.641
563.67	20.580
564.01	20.518
564.34	20.462
564.68	20.435
565.01	20.346
565.35	20.286
565.68	20.202
566.02	20.123
566.35	20.023
566.69	19.906
567.02	19.779
567.36	19.691
567.69	19.619
568.03	19.563
568.36	19.461
568.69	19.395
569.03	19.310
569.36	19.230
569.70	19.157
570.03	19.110
570.37	19.055
570.70	18.990
571.04	18.931
571.37	18.844
571.70	18.757
572.04	18.688
572.37	18.624
572.71	18.543
573.04	18.499
573.37	18.431
573.71	18.347
574.04	18.283
574.38	18.217
574.71	18.128
575.04	18.057
575.38	17.976
575.71	17.896
576.05	17.804
576.38	17.732
576.71	17.638
577.05	17.562
577.38	17.486
577.71	17.393
578.05	17.306
578.38	17.229
578.71	17.139
579.05	17.060
579.38	16.999
579.71	16.915
580.05	16.849
580.38	16.785
580.71	16.726
581.05	16.656
581.38	16.612
581.71	16.580
582.05	16.536
582.38	16.498
582.71	16.436
583.04	16.396
583.38	16.346
583.71	16.299
584.04	16.239
584.38	16.169
584.71	16.110
585.04	16.087
585.37	16.044
585.71	16.012
586.04	15.970
586.37	15.983
586.70	15.957
587.04	15.956
587.37	15.938
587.70	15.932
588.03	15.923
588.37	15.918
588.70	15.878
589.03	15.843
589.36	15.820
589.69	15.788
590.03	15.745
590.36	15.699
590.69	15.616
591.02	15.572
591.35	15.541
591.69	15.493
592.02	15.472
592.35	15.434
592.68	15.400
593.01	15.352
593.35	15.341
593.68	15.308
594.01	15.281
594.34	15.280
594.67	15.255
595.00	15.189
595.34	15.164
595.67	15.114
596.00	15.099
596.33	15.052
596.66	14.996
596.99	14.939
597.32	14.889
597.65	14.861
597.99	14.832
598.32	14.775
598.65	14.747
598.98	14.689
599.31	14.641
599.64	14.581
599.97	14.578
600.30	14.544
600.63	14.525
600.96	14.514
601.30	14.500
601.63	14.487
601.96	14.496
602.29	14.500
602.62	14.497
602.95	14.481
603.28	14.436
603.61	14.379
603.94	14.357
604.27	14.354
604.60	14.303
604.93	14.244
605.26	14.192
605.59	14.126
605.92	14.055
606.25	14.015
606.58	13.967
606.91	13.926
607.24	13.893
607.57	13.870
607.90	13.804
608.23	13.735
608.56	13.688
608.89	13.628
609.22	13.569
609.55	13.498
609.88	13.424
610.21	13.359
610.54	13.290
610.87	13.212
611.20	13.144
611.53	13.083
611.86	13.037
612.19	12.945
612.52	12.865
612.85	12.817
613.18	12.786
613.51	12.698
613.84	12.608
614.17	12.572
614.49	12.544
614.82	12.431
615.15	12.375
615.48	12.321
615.81	12.304
616.14	12.265
616.47	12.237
616.80	12.182
617.13	12.159
617.46	12.123
617.78	12.096
618.11	12.037
618.44	12.061
618.77	12.014
619.10	11.958
619.43	11.900
619.76	11.856
620.09	11.803
620.41	11.790
620.74	11.791
621.07	11.803
621.40	11.810
621.73	11.818
622.06	11.776
622.38	11.769
622.71	11.785
623.04	11.824
623.37	11.867
623.70	11.894
624.02	11.881
624.35	11.888
624.68	11.884
625.01	11.858
625.34	11.859
625.66	11.875
625.99	11.884
626.32	11.907
626.65	11.896
626.98	11.876
627.30	11.860
627.63	11.859
627.96	11.789
628.29	11.740
628.61	11.717
628.94	11.662
629.27	11.635
629.60	11.537
629.92	11.482
630.25	11.418
630.58	11.383
630.91	11.348
631.23	11.281
631.56	11.274
631.89	11.220
632.21	11.170
632.54	11.126
632.87	11.073
633.19	11.032
633.52	10.953
633.85	10.915
634.18	10.807
634.50	10.685
634.83	10.618
635.16	10.532
635.48	10.440
635.81	10.337
636.14	10.234
636.46	10.121
636.79	10.054
637.11	9.954
637.44	9.795
637.77	9.704
638.09	9.631
638.42	9.523
638.75	9.436
639.07	9.383
639.40	9.297
639.73	9.198
640.05	9.073
640.38	9.024
640.70	8.921
641.03	8.826
641.36	8.764
641.68	8.657
642.01	8.579
642.33	8.511
642.66	8.450
642.98	8.354
643.31	8.275
643.64	8.242
643.96	8.148
644.29	8.117
644.61	8.089
644.94	8.025
645.26	7.997
645.59	7.948
645.91	7.878
646.24	7.823
646.56	7.762
646.89	7.756
647.22	7.689
647.54	7.624
647.87	7.585
648.19	7.533
648.52	7.495
648.84	7.464
649.17	7.383
649.49	7.308
649.82	7.255
