OOIBase32 Version 2.0.0.6 Data File
++++++++++++++++++++++++++++++++++++
Date: 01-23-2012, 23:18:49
User: Valued Ocean Optics Customer
Spectrometer Serial Number: USB2E2917
Spectrometer Channel: Master
Integration Time (msec): 5
Spectra Averaged: 10
Boxcar Smoothing: 5
Correct for Electrical Dark: Enabled
Time Normalized: Disabled
Dual-beam Reference: Disabled
Reference Channel: Master
Temperature: Not acquired
Spectrometer Type: S2000
ADC Type: USB2000
Number of Pixels in File: 2048
Graph Title: 
>>>>>Begin Spectral Data<<<<<
180.30	0.000
180.67	0.000
181.03	-74.189
181.40	230.528
181.77	-9286.544
182.14	90.664
182.51	-91.176
182.88	336.696
183.25	1.681
183.62	32.497
183.99	331.970
184.36	27.086
184.73	545.272
185.10	-47.834
185.46	-406.913
185.83	-456.653
186.20	140.763
186.57	36.293
186.94	126.100
187.31	35.237
187.68	132.731
188.05	80.692
188.42	118.897
188.78	160.976
189.15	450.126
189.52	-142.922
189.89	-8.779
190.26	27.317
190.63	18.680
191.00	31.145
191.37	31.487
191.73	34.695
192.10	35.631
192.47	39.746
192.84	32.868
193.21	32.882
193.58	33.808
193.94	23.172
194.31	11.178
194.68	19.339
195.05	3.514
195.42	2.859
195.79	-11.795
196.15	-13.596
196.52	-16.380
196.89	-9.615
197.26	-35.447
197.63	-17.959
198.00	-10.664
198.36	-2.559
198.73	-30.048
199.10	-28.692
199.47	-28.504
199.84	-32.312
200.20	-33.272
200.57	-35.768
200.94	-42.195
201.31	-36.985
201.68	-40.979
202.04	-40.185
202.41	-53.872
202.78	-63.946
203.15	-62.208
203.51	-64.474
203.88	-47.951
204.25	-42.738
204.62	-59.298
204.98	-63.931
205.35	-71.846
205.72	-90.402
206.09	-90.097
206.46	-158.918
206.82	-125.024
207.19	-113.198
207.56	-186.267
207.92	-168.395
208.29	-174.376
208.66	-117.134
209.03	-106.063
209.39	-67.747
209.76	-70.883
210.13	-124.715
210.50	-82.160
210.86	-72.574
211.23	-99.997
211.60	-73.076
211.96	-74.978
212.33	-68.404
212.70	-73.532
213.07	-76.630
213.43	-114.785
213.80	-98.630
214.17	-55.767
214.53	-36.232
214.90	-34.056
215.27	-21.768
215.63	-13.097
216.00	-5.749
216.37	-7.997
216.74	-19.617
217.10	-18.577
217.47	-20.460
217.84	-12.245
218.20	-13.560
218.57	-6.989
218.94	-5.671
219.30	-10.451
219.67	-15.330
220.04	-17.979
220.40	-19.907
220.77	-22.278
221.13	-21.664
221.50	-15.145
221.87	-16.668
222.23	-17.166
222.60	-32.729
222.97	-34.364
223.33	-30.726
223.70	-25.235
224.07	-23.547
224.43	-19.559
224.80	-12.696
225.16	-12.045
225.53	-12.261
225.90	-13.306
226.26	-8.531
226.63	-4.807
226.99	-2.892
227.36	-1.504
227.73	-0.190
228.09	0.090
228.46	0.776
228.82	0.646
229.19	1.520
229.56	1.933
229.92	3.623
230.29	3.002
230.65	2.735
231.02	2.506
231.38	0.267
231.75	-1.722
232.12	-1.951
232.48	-2.990
232.85	-2.706
233.21	-3.457
233.58	-5.462
233.94	-5.487
234.31	-5.865
234.68	-6.061
235.04	-5.988
235.41	-3.866
235.77	-2.333
236.14	-0.880
236.50	-0.469
236.87	-0.340
237.23	0.367
237.60	0.302
237.96	-0.123
238.33	-0.586
238.69	-0.421
239.06	-0.739
239.42	-1.166
239.79	-1.774
240.15	-1.893
240.52	-1.358
240.88	-0.934
241.25	-0.786
241.61	-0.200
241.98	-0.233
242.34	-0.253
242.71	0.140
243.07	0.339
243.44	0.404
243.80	0.612
244.17	0.178
244.53	-0.287
244.90	-0.471
245.26	-0.625
245.63	-0.852
245.99	-0.989
246.36	-1.126
246.72	-1.185
247.09	-1.439
247.45	-1.348
247.81	-1.268
248.18	-1.128
248.54	-1.129
248.91	-1.646
249.27	-1.622
249.64	-1.210
250.00	-0.993
250.36	-0.866
250.73	-1.113
251.09	-1.000
251.46	-1.372
251.82	-1.912
252.19	-2.140
252.55	-1.942
252.91	-1.371
253.28	-1.634
253.64	-2.393
254.01	-1.913
254.37	-1.347
254.73	-1.224
255.10	-0.882
255.46	-0.348
255.83	-0.257
256.19	-0.004
256.55	-0.069
256.92	0.061
257.28	0.213
257.65	0.568
258.01	0.553
258.37	0.350
258.74	0.269
259.10	0.197
259.46	-0.009
259.83	0.008
260.19	-0.064
260.55	0.065
260.92	-0.108
261.28	-0.184
261.64	-0.233
262.01	-0.441
262.37	-0.274
262.73	-0.178
263.10	-0.095
263.46	-0.085
263.82	0.179
264.19	0.250
264.55	-0.030
264.91	-0.020
265.28	-0.134
265.64	-0.359
266.00	-0.231
266.37	-0.402
266.73	-0.461
267.09	-0.376
267.46	-0.379
267.82	-0.661
268.18	-0.643
268.54	-0.507
268.91	-0.443
269.27	-0.289
269.63	-0.035
270.00	-0.122
270.36	-0.046
270.72	0.125
271.08	0.001
271.45	-0.060
271.81	0.024
272.17	-0.107
272.53	-0.022
272.90	0.056
273.26	0.096
273.62	-0.270
273.98	-0.420
274.35	-0.571
274.71	-0.635
275.07	-0.363
275.43	-0.167
275.80	-0.301
276.16	-0.180
276.52	0.035
276.88	-0.012
277.25	-0.105
277.61	0.001
277.97	0.034
278.33	0.123
278.69	-0.075
279.06	-0.283
279.42	-0.351
279.78	-0.215
280.14	-0.268
280.50	-0.419
280.87	-0.306
281.23	-0.272
281.59	-0.179
281.95	-0.237
282.31	-0.123
282.68	-0.162
283.04	-0.364
283.40	-0.258
283.76	-0.146
284.12	-0.024
284.48	-0.019
284.85	-0.131
285.21	-0.052
285.57	-0.024
285.93	0.155
286.29	0.076
286.65	0.273
287.02	0.705
287.38	0.641
287.74	0.446
288.10	0.249
288.46	0.132
288.82	0.130
289.18	0.072
289.54	0.115
289.91	0.019
290.27	0.035
290.63	-0.018
290.99	-0.154
291.35	0.048
291.71	0.234
292.07	0.207
292.43	0.247
292.79	0.218
293.16	0.121
293.52	0.095
293.88	0.223
294.24	0.171
294.60	0.194
294.96	0.100
295.32	0.035
295.68	0.089
296.04	0.369
296.40	0.406
296.76	0.512
297.12	0.505
297.49	0.332
297.85	0.181
298.21	0.112
298.57	-0.100
298.93	-0.018
299.29	-0.182
299.65	-0.243
300.01	-0.370
300.37	-0.318
300.73	-0.249
301.09	-0.187
301.45	-0.055
301.81	0.069
302.17	0.165
302.53	0.122
302.89	0.093
303.25	0.268
303.61	0.248
303.97	0.052
304.33	-0.053
304.69	-0.033
305.05	0.031
305.41	0.065
305.77	0.037
306.13	0.077
306.49	0.191
306.85	0.176
307.21	0.153
307.57	0.269
307.93	0.407
308.29	0.626
308.65	0.572
309.01	0.454
309.37	0.467
309.73	0.454
310.09	0.556
310.45	0.595
310.81	0.539
311.17	0.521
311.53	0.448
311.89	0.495
312.25	0.250
312.61	0.184
312.96	0.282
313.32	0.308
313.68	0.372
314.04	0.205
314.40	0.241
314.76	0.199
315.12	0.234
315.48	0.290
315.84	0.182
316.20	0.224
316.56	0.174
316.92	0.120
317.27	-0.012
317.63	-0.053
317.99	-0.088
318.35	-0.128
318.71	-0.025
319.07	-0.008
319.43	-0.043
319.79	0.047
320.15	0.073
320.50	0.137
320.86	0.143
321.22	0.204
321.58	0.158
321.94	0.142
322.30	0.091
322.66	0.088
323.01	-0.055
323.37	-0.182
323.73	-0.276
324.09	-0.346
324.45	-0.305
324.81	-0.293
325.17	-0.312
325.52	-0.387
325.88	-0.417
326.24	-0.372
326.60	-0.403
326.96	-0.342
327.31	-0.299
327.67	-0.285
328.03	-0.208
328.39	-0.398
328.75	-0.374
329.11	-0.289
329.46	-0.175
329.82	-0.081
330.18	-0.110
330.54	-0.111
330.90	-0.109
331.25	-0.079
331.61	0.011
331.97	0.004
332.33	0.151
332.68	0.113
333.04	0.050
333.40	-0.099
333.76	-0.145
334.11	-0.160
334.47	-0.181
334.83	-0.262
335.19	-0.305
335.54	-0.333
335.90	-0.330
336.26	-0.322
336.62	-0.355
336.97	-0.421
337.33	-0.413
337.69	-0.398
338.05	-0.404
338.40	-0.431
338.76	-0.386
339.12	-0.282
339.48	-0.348
339.83	-0.333
340.19	-0.341
340.55	-0.229
340.90	-0.233
341.26	-0.148
341.62	-0.200
341.97	-0.166
342.33	-0.102
342.69	-0.090
343.04	-0.108
343.40	-0.149
343.76	-0.207
344.12	-0.184
344.47	-0.197
344.83	-0.135
345.19	-0.090
345.54	-0.021
345.90	-0.023
346.26	-0.017
346.61	0.004
346.97	-0.036
347.32	0.008
347.68	0.010
348.04	-0.052
348.39	-0.121
348.75	-0.067
349.11	-0.087
349.46	-0.111
349.82	-0.130
350.18	-0.136
350.53	-0.074
350.89	-0.047
351.24	-0.052
351.60	-0.028
351.96	0.049
352.31	0.110
352.67	0.097
353.02	0.073
353.38	0.095
353.74	0.153
354.09	0.130
354.45	0.087
354.80	0.075
355.16	0.179
355.52	0.223
355.87	0.171
356.23	0.180
356.58	0.176
356.94	0.217
357.29	0.254
357.65	0.234
358.00	0.238
358.36	0.228
358.72	0.208
359.07	0.170
359.43	0.196
359.78	0.233
360.14	0.208
360.49	0.202
360.85	0.254
361.20	0.264
361.56	0.273
361.91	0.289
362.27	0.347
362.62	0.393
362.98	0.419
363.33	0.381
363.69	0.379
364.04	0.450
364.40	0.480
364.75	0.458
365.11	0.442
365.46	0.453
365.82	0.504
366.17	0.482
366.53	0.493
366.88	0.493
367.24	0.560
367.59	0.574
367.95	0.544
368.30	0.556
368.66	0.557
369.01	0.581
369.37	0.623
369.72	0.636
370.08	0.698
370.43	0.730
370.78	0.753
371.14	0.726
371.49	0.783
371.85	0.817
372.20	0.859
372.56	0.870
372.91	0.890
373.26	0.949
373.62	0.961
373.97	0.981
374.33	1.036
374.68	1.083
375.03	1.138
375.39	1.153
375.74	1.196
376.10	1.213
376.45	1.295
376.80	1.362
377.16	1.371
377.51	1.433
377.87	1.507
378.22	1.485
378.57	1.523
378.93	1.588
379.28	1.699
379.63	1.754
379.99	1.861
380.34	1.926
380.70	2.006
381.05	2.104
381.40	2.175
381.76	2.225
382.11	2.352
382.46	2.465
382.82	2.563
383.17	2.577
383.52	2.645
383.88	2.682
384.23	2.735
384.58	2.783
384.94	2.850
385.29	2.949
385.64	3.052
385.99	3.148
386.35	3.196
386.70	3.261
387.05	3.325
387.41	3.395
387.76	3.446
388.11	3.533
388.47	3.609
388.82	3.661
389.17	3.721
389.52	3.773
389.88	3.852
390.23	3.919
390.58	3.996
390.93	4.087
391.29	4.136
391.64	4.253
391.99	4.350
392.34	4.444
392.70	4.499
393.05	4.541
393.40	4.605
393.75	4.621
394.11	4.668
394.46	4.699
394.81	4.749
395.16	4.817
395.52	4.845
395.87	4.852
396.22	4.867
396.57	4.924
396.92	4.933
397.28	4.934
397.63	4.985
397.98	5.026
398.33	5.059
398.68	5.085
399.04	5.089
399.39	5.079
399.74	5.084
400.09	5.087
400.44	5.099
400.80	5.142
401.15	5.143
401.50	5.160
401.85	5.182
402.20	5.159
402.55	5.173
402.90	5.204
403.26	5.206
403.61	5.194
403.96	5.195
404.31	5.189
404.66	5.191
405.01	5.190
405.36	5.200
405.72	5.169
406.07	5.206
406.42	5.152
406.77	5.124
407.12	5.140
407.47	5.168
407.82	5.177
408.17	5.176
408.53	5.168
408.88	5.156
409.23	5.130
409.58	5.130
409.93	5.128
410.28	5.171
410.63	5.138
410.98	5.129
411.33	5.101
411.68	5.136
412.03	5.161
412.38	5.128
412.73	5.159
413.09	5.155
413.44	5.144
413.79	5.126
414.14	5.130
414.49	5.158
414.84	5.171
415.19	5.203
415.54	5.193
415.89	5.179
416.24	5.225
416.59	5.219
416.94	5.230
417.29	5.252
417.64	5.245
417.99	5.264
418.34	5.270
418.69	5.274
419.04	5.259
419.39	5.265
419.74	5.266
420.09	5.261
420.44	5.269
420.79	5.265
421.14	5.273
421.49	5.292
421.84	5.272
422.19	5.288
422.54	5.288
422.89	5.294
423.24	5.286
423.59	5.275
423.94	5.269
424.29	5.273
424.64	5.268
424.99	5.249
425.34	5.222
425.68	5.205
426.03	5.167
426.38	5.133
426.73	5.110
427.08	5.086
427.43	5.096
427.78	5.087
428.13	5.058
428.48	5.040
428.83	5.015
429.18	5.011
429.53	4.995
429.87	4.968
430.22	4.965
430.57	4.974
430.92	4.956
431.27	4.955
431.62	4.929
431.97	4.918
432.32	4.909
432.67	4.910
433.01	4.880
433.36	4.874
433.71	4.882
434.06	4.871
434.41	4.841
434.76	4.858
435.11	4.850
435.45	4.847
435.80	4.836
436.15	4.844
436.50	4.852
436.85	4.895
437.20	4.912
437.54	4.916
437.89	4.929
438.24	4.942
438.59	4.940
438.94	4.929
439.29	4.937
439.63	4.968
439.98	4.975
440.33	4.968
440.68	4.967
441.03	4.976
441.37	5.007
441.72	5.027
442.07	5.035
442.42	5.056
442.76	5.100
443.11	5.134
443.46	5.159
443.81	5.196
444.16	5.238
444.50	5.250
444.85	5.271
445.20	5.296
445.55	5.312
445.89	5.347
446.24	5.377
446.59	5.369
446.94	5.380
447.28	5.391
447.63	5.393
447.98	5.413
448.32	5.448
448.67	5.471
449.02	5.479
449.37	5.479
449.71	5.494
450.06	5.497
450.41	5.532
450.75	5.543
451.10	5.556
451.45	5.572
451.79	5.560
452.14	5.549
452.49	5.564
452.84	5.577
453.18	5.595
453.53	5.583
453.88	5.600
454.22	5.609
454.57	5.620
454.92	5.624
455.26	5.643
455.61	5.674
455.95	5.719
456.30	5.737
456.65	5.762
456.99	5.787
457.34	5.813
457.69	5.820
458.03	5.829
458.38	5.846
458.73	5.871
459.07	5.873
459.42	5.855
459.76	5.821
460.11	5.795
460.46	5.763
460.80	5.730
461.15	5.711
461.49	5.678
461.84	5.659
462.19	5.625
462.53	5.583
462.88	5.562
463.22	5.554
463.57	5.552
463.91	5.535
464.26	5.548
464.61	5.550
464.95	5.542
465.30	5.555
465.64	5.558
465.99	5.576
466.33	5.584
466.68	5.579
467.02	5.580
467.37	5.579
467.71	5.590
468.06	5.580
468.41	5.574
468.75	5.591
469.10	5.577
469.44	5.556
469.79	5.522
470.13	5.490
470.48	5.482
470.82	5.472
471.17	5.475
471.51	5.459
471.86	5.457
472.20	5.456
472.55	5.451
472.89	5.452
473.23	5.458
473.58	5.469
473.92	5.488
474.27	5.489
474.61	5.497
474.96	5.502
475.30	5.528
475.65	5.520
475.99	5.532
476.34	5.535
476.68	5.534
477.02	5.539
477.37	5.544
477.71	5.583
478.06	5.616
478.40	5.679
478.75	5.751
479.09	5.845
479.43	5.973
479.78	6.111
480.12	6.258
480.47	6.421
480.81	6.572
481.15	6.725
481.50	6.878
481.84	7.044
482.19	7.217
482.53	7.362
482.87	7.460
483.22	7.481
483.56	7.434
483.90	7.326
484.25	7.188
484.59	7.046
484.94	6.915
485.28	6.788
485.62	6.642
485.97	6.476
486.31	6.354
486.65	6.266
487.00	6.243
487.34	6.256
487.68	6.308
488.03	6.381
488.37	6.454
488.71	6.504
489.06	6.517
489.40	6.550
489.74	6.567
490.09	6.568
490.43	6.570
490.77	6.556
491.11	6.554
491.46	6.555
491.80	6.553
492.14	6.544
492.49	6.549
492.83	6.559
493.17	6.563
493.51	6.587
493.86	6.613
494.20	6.643
494.54	6.684
494.88	6.749
495.23	6.830
495.57	6.886
495.91	6.968
496.25	7.041
496.60	7.119
496.94	7.186
497.28	7.257
497.62	7.324
497.97	7.383
498.31	7.469
498.65	7.542
498.99	7.590
499.33	7.698
499.68	7.798
500.02	7.894
500.36	7.975
500.70	8.083
501.04	8.180
501.39	8.276
501.73	8.402
502.07	8.530
502.41	8.642
502.75	8.797
503.09	8.903
503.44	9.015
503.78	9.149
504.12	9.288
504.46	9.412
504.80	9.544
505.14	9.702
505.49	9.847
505.83	9.986
506.17	10.142
506.51	10.279
506.85	10.438
507.19	10.589
507.53	10.742
507.87	10.888
508.22	11.014
508.56	11.159
508.90	11.277
509.24	11.415
509.58	11.560
509.92	11.715
510.26	11.860
510.60	12.007
510.94	12.161
511.28	12.290
511.63	12.443
511.97	12.633
512.31	12.824
512.65	13.008
512.99	13.195
513.33	13.423
513.67	13.623
514.01	13.858
514.35	14.101
514.69	14.335
515.03	14.549
515.37	14.762
515.71	14.975
516.05	15.167
516.39	15.361
516.73	15.535
517.07	15.683
517.41	15.829
517.75	15.962
518.09	16.087
518.43	16.213
518.77	16.362
519.11	16.488
519.45	16.589
519.79	16.735
520.13	16.888
520.47	17.051
520.81	17.199
521.15	17.402
521.49	17.589
521.83	17.785
522.17	17.952
522.51	18.144
522.85	18.369
523.19	18.635
523.53	18.915
523.87	19.207
524.21	19.521
524.55	19.824
524.89	20.072
525.23	20.331
525.57	20.548
525.91	20.772
526.25	20.967
526.58	21.151
526.92	21.295
527.26	21.387
527.60	21.444
527.94	21.485
528.28	21.516
528.62	21.534
528.96	21.522
529.30	21.514
529.64	21.489
529.97	21.458
530.31	21.421
530.65	21.408
530.99	21.432
531.33	21.480
531.67	21.495
532.01	21.512
532.35	21.535
532.68	21.573
533.02	21.585
533.36	21.591
533.70	21.603
534.04	21.602
534.38	21.602
534.71	21.574
535.05	21.574
535.39	21.594
535.73	21.591
536.07	21.611
536.41	21.607
536.74	21.623
537.08	21.674
537.42	21.750
537.76	21.830
538.10	21.914
538.43	22.002
538.77	22.079
539.11	22.140
539.45	22.218
539.79	22.271
540.12	22.339
540.46	22.381
540.80	22.396
541.14	22.374
541.47	22.354
541.81	22.321
542.15	22.299
542.49	22.240
542.82	22.190
543.16	22.122
543.50	22.072
543.84	22.006
544.17	21.961
544.51	21.946
544.85	21.933
545.18	21.932
545.52	21.922
545.86	21.895
546.20	21.911
546.53	21.899
546.87	21.866
547.21	21.838
547.54	21.800
547.88	21.809
548.22	21.782
548.55	21.764
548.89	21.734
549.23	21.731
549.56	21.713
549.90	21.701
550.24	21.707
550.57	21.726
550.91	21.710
551.25	21.746
551.58	21.742
551.92	21.729
552.26	21.722
552.59	21.715
552.93	21.678
553.27	21.670
553.60	21.621
553.94	21.578
554.27	21.559
554.61	21.568
554.95	21.518
555.28	21.454
555.62	21.424
555.95	21.420
556.29	21.380
556.63	21.336
556.96	21.291
557.30	21.268
557.63	21.226
557.97	21.167
558.31	21.083
558.64	21.031
558.98	21.010
559.31	20.986
559.65	20.905
559.98	20.854
560.32	20.786
560.65	20.721
560.99	20.647
561.33	20.592
561.66	20.537
562.00	20.494
562.33	20.432
562.67	20.349
563.00	20.278
563.34	20.198
563.67	20.139
564.01	20.092
564.34	20.025
564.68	19.965
565.01	19.903
565.35	19.845
565.68	19.737
566.02	19.633
566.35	19.548
566.69	19.425
567.02	19.353
567.36	19.229
567.69	19.151
568.03	19.077
568.36	18.966
568.69	18.860
569.03	18.753
569.36	18.703
569.70	18.625
570.03	18.543
570.37	18.474
570.70	18.409
571.04	18.346
571.37	18.260
571.70	18.159
572.04	18.090
572.37	18.006
572.71	17.909
573.04	17.828
573.37	17.775
573.71	17.723
574.04	17.669
574.38	17.574
574.71	17.502
575.04	17.422
575.38	17.363
575.71	17.272
576.05	17.201
576.38	17.171
576.71	17.079
577.05	16.995
577.38	16.891
577.71	16.780
578.05	16.711
578.38	16.635
578.71	16.548
579.05	16.463
579.38	16.392
579.71	16.314
580.05	16.215
580.38	16.149
580.71	16.057
581.05	15.990
581.38	15.954
581.71	15.894
582.05	15.822
582.38	15.790
582.71	15.719
583.04	15.698
583.38	15.619
583.71	15.585
584.04	15.567
584.38	15.529
584.71	15.490
585.04	15.454
585.37	15.427
585.71	15.406
586.04	15.357
586.37	15.337
586.70	15.300
587.04	15.303
587.37	15.279
587.70	15.237
588.03	15.226
588.37	15.207
588.70	15.176
589.03	15.127
589.36	15.083
589.69	15.037
590.03	15.009
590.36	14.956
590.69	14.888
591.02	14.808
591.35	14.773
591.69	14.724
592.02	14.700
592.35	14.627
592.68	14.611
593.01	14.609
593.35	14.595
593.68	14.583
594.01	14.583
594.34	14.584
594.67	14.587
595.00	14.550
595.34	14.534
595.67	14.481
596.00	14.479
596.33	14.422
596.66	14.375
596.99	14.336
597.32	14.275
597.65	14.214
597.99	14.180
598.32	14.094
598.65	14.035
598.98	13.979
599.31	13.914
599.64	13.874
599.97	13.856
600.30	13.815
600.63	13.786
600.96	13.799
601.30	13.792
601.63	13.784
601.96	13.823
602.29	13.815
602.62	13.810
602.95	13.810
603.28	13.796
603.61	13.756
603.94	13.735
604.27	13.717
604.60	13.651
604.93	13.613
605.26	13.543
605.59	13.476
605.92	13.424
606.25	13.363
606.58	13.316
606.91	13.219
607.24	13.196
607.57	13.131
607.90	13.057
608.23	13.009
608.56	12.934
608.89	12.866
609.22	12.812
609.55	12.718
609.88	12.651
610.21	12.600
610.54	12.554
610.87	12.451
611.20	12.385
611.53	12.305
611.86	12.220
612.19	12.137
612.52	12.072
612.85	11.986
613.18	11.972
613.51	11.857
613.84	11.757
614.17	11.734
614.49	11.697
614.82	11.655
615.15	11.642
615.48	11.592
615.81	11.558
616.14	11.539
616.47	11.501
616.80	11.413
617.13	11.406
617.46	11.388
617.78	11.310
618.11	11.252
618.44	11.194
618.77	11.107
619.10	11.066
619.43	11.021
619.76	10.949
620.09	10.903
620.41	10.910
620.74	10.916
621.07	10.882
621.40	10.897
621.73	10.901
622.06	10.900
622.38	10.901
622.71	10.899
623.04	10.934
623.37	11.004
623.70	11.041
624.02	11.061
624.35	11.059
624.68	11.060
625.01	11.059
625.34	11.085
625.66	11.115
625.99	11.140
626.32	11.161
626.65	11.108
626.98	11.061
627.30	11.016
627.63	10.978
627.96	10.926
628.29	10.902
628.61	10.863
628.94	10.815
629.27	10.755
629.60	10.694
629.92	10.652
630.25	10.646
630.58	10.585
630.91	10.541
631.23	10.472
631.56	10.464
631.89	10.420
632.21	10.388
632.54	10.348
632.87	10.289
633.19	10.217
633.52	10.164
633.85	10.108
634.18	10.037
634.50	9.964
634.83	9.901
635.16	9.785
635.48	9.682
635.81	9.582
636.14	9.476
636.46	9.394
636.79	9.334
637.11	9.200
637.44	9.046
637.77	8.955
638.09	8.858
638.42	8.770
638.75	8.664
639.07	8.575
639.40	8.463
639.73	8.358
640.05	8.214
640.38	8.105
640.70	8.021
641.03	7.959
641.36	7.895
641.68	7.810
642.01	7.730
642.33	7.671
642.66	7.602
642.98	7.512
643.31	7.431
643.64	7.386
643.96	7.333
