OOIBase32 Version 2.0.0.6 Data File
++++++++++++++++++++++++++++++++++++
Date: 01-23-2012, 23:18:59
User: Valued Ocean Optics Customer
Spectrometer Serial Number: USB2E2917
Spectrometer Channel: Master
Integration Time (msec): 5
Spectra Averaged: 10
Boxcar Smoothing: 5
Correct for Electrical Dark: Enabled
Time Normalized: Disabled
Dual-beam Reference: Disabled
Reference Channel: Master
Temperature: Not acquired
Spectrometer Type: S2000
ADC Type: USB2000
Number of Pixels in File: 2048
Graph Title: 
>>>>>Begin Spectral Data<<<<<
180.30	0.000
180.67	0.000
181.03	25.836
181.40	280.757
181.77	-16199.312
182.14	100.012
182.51	-780.613
182.88	-90.983
183.25	-61.850
183.62	36.790
183.99	-17.025
184.36	-48.340
184.73	106.805
185.10	171.223
185.46	-517.500
185.83	136.095
186.20	1906.729
186.57	224.424
186.94	55.547
187.31	49.497
187.68	115.628
188.05	-19.356
188.42	32.557
188.78	102.046
189.15	363.243
189.52	-43.499
189.89	18.334
190.26	16.302
190.63	17.049
191.00	26.007
191.37	25.175
191.73	36.006
192.10	27.461
192.47	34.861
192.84	33.482
193.21	39.971
193.58	29.685
193.94	18.670
194.31	17.167
194.68	16.274
195.05	0.173
195.42	3.201
195.79	-9.116
196.15	-18.263
196.52	-39.746
196.89	-48.719
197.26	-65.536
197.63	-35.131
198.00	-23.408
198.36	-15.603
198.73	-58.632
199.10	-30.529
199.47	-36.512
199.84	-24.091
200.20	-33.116
200.57	-23.824
200.94	-24.803
201.31	-10.594
201.68	-26.302
202.04	-18.672
202.41	-23.258
202.78	-18.172
203.15	-29.363
203.51	-25.701
203.88	-37.783
204.25	-20.102
204.62	-28.324
204.98	-27.709
205.35	-41.444
205.72	-18.274
206.09	-21.724
206.46	-59.133
206.82	-57.250
207.19	-44.956
207.56	-90.507
207.92	-73.860
208.29	-99.769
208.66	-72.967
209.03	-79.616
209.39	-59.356
209.76	-60.730
210.13	-117.106
210.50	-76.056
210.86	-52.041
211.23	-61.141
211.60	-22.936
211.96	-37.306
212.33	-28.078
212.70	-37.837
213.07	-37.149
213.43	-64.553
213.80	-66.774
214.17	-38.249
214.53	-28.623
214.90	-25.439
215.27	-24.170
215.63	-30.158
216.00	-21.179
216.37	-17.106
216.74	-27.610
217.10	-17.428
217.47	-23.149
217.84	-23.145
218.20	-21.607
218.57	-17.258
218.94	-17.021
219.30	-19.664
219.67	-22.327
220.04	-18.684
220.40	-23.851
220.77	-21.847
221.13	-18.211
221.50	-3.708
221.87	-2.817
222.23	-3.071
222.60	-12.073
222.97	-9.740
223.33	-3.283
223.70	-0.947
224.07	-5.176
224.43	-3.990
224.80	-1.067
225.16	-6.070
225.53	-10.208
225.90	-11.237
226.26	-8.479
226.63	-5.303
226.99	-5.525
227.36	-6.206
227.73	-4.840
228.09	-4.596
228.46	-2.140
228.82	-0.459
229.19	1.150
229.56	1.862
229.92	3.661
230.29	2.246
230.65	1.440
231.02	0.948
231.38	-1.350
231.75	-4.659
232.12	-5.551
232.48	-7.731
232.85	-9.563
233.21	-10.679
233.58	-10.449
233.94	-8.710
234.31	-7.107
234.68	-5.853
235.04	-6.324
235.41	-4.302
235.77	-2.038
236.14	-0.060
236.50	1.511
236.87	1.678
237.23	2.891
237.60	1.499
237.96	-0.045
238.33	-1.120
238.69	-1.447
239.06	-0.774
239.42	-1.071
239.79	-1.913
240.15	-2.186
240.52	-2.131
240.88	-1.691
241.25	-2.068
241.61	-1.153
241.98	-1.068
242.34	-0.588
242.71	-0.155
243.07	-0.255
243.44	-0.257
243.80	0.003
244.17	0.040
244.53	-0.263
244.90	-0.468
245.26	-0.376
245.63	-0.673
245.99	-0.635
246.36	-0.791
246.72	-0.668
247.09	-0.746
247.45	-0.507
247.81	-0.269
248.18	-0.165
248.54	0.004
248.91	-0.127
249.27	0.044
249.64	0.657
250.00	0.873
250.36	0.710
250.73	0.097
251.09	0.097
251.46	-0.491
251.82	-0.753
252.19	-1.015
252.55	-1.141
252.91	-0.927
253.28	-1.255
253.64	-2.257
254.01	-2.417
254.37	-1.686
254.73	-1.121
255.10	-0.774
255.46	0.041
255.83	0.159
256.19	0.220
256.55	0.116
256.92	0.246
257.28	0.215
257.65	0.639
258.01	0.670
258.37	0.456
258.74	0.092
259.10	-0.088
259.46	-0.323
259.83	-0.280
260.19	-0.433
260.55	-0.420
260.92	-0.481
261.28	-0.347
261.64	-0.657
262.01	-0.654
262.37	-0.455
262.73	-0.171
263.10	-0.028
263.46	-0.013
263.82	-0.141
264.19	-0.029
264.55	-0.373
264.91	-0.613
265.28	-0.825
265.64	-0.751
266.00	-0.780
266.37	-0.936
266.73	-0.907
267.09	-0.632
267.46	-0.662
267.82	-0.924
268.18	-0.865
268.54	-0.489
268.91	-0.529
269.27	-0.470
269.63	-0.094
270.00	-0.057
270.36	-0.068
270.72	0.107
271.08	0.026
271.45	0.140
271.81	0.358
272.17	0.394
272.53	0.119
272.90	0.213
273.26	0.431
273.62	0.026
273.98	-0.108
274.35	0.053
274.71	0.092
275.07	-0.165
275.43	-0.294
275.80	-0.166
276.16	-0.191
276.52	0.041
276.88	0.003
277.25	-0.468
277.61	-0.587
277.97	-0.591
278.33	-0.642
278.69	-1.069
279.06	-0.931
279.42	-0.729
279.78	-0.861
280.14	-0.949
280.50	-1.010
280.87	-0.927
281.23	-0.746
281.59	-0.558
281.95	-0.598
282.31	-0.564
282.68	-0.458
283.04	-0.599
283.40	-0.679
283.76	-0.785
284.12	-0.648
284.48	-0.619
284.85	-0.526
285.21	-0.517
285.57	-0.501
285.93	-0.362
286.29	-0.447
286.65	-0.199
287.02	0.153
287.38	0.086
287.74	0.131
288.10	0.132
288.46	0.055
288.82	-0.096
289.18	0.011
289.54	-0.053
289.91	-0.043
290.27	0.150
290.63	0.087
290.99	-0.008
291.35	0.145
291.71	0.200
292.07	-0.026
292.43	0.002
292.79	-0.052
293.16	-0.254
293.52	-0.075
293.88	-0.024
294.24	-0.095
294.60	-0.148
294.96	-0.197
295.32	-0.193
295.68	-0.219
296.04	-0.021
296.40	0.161
296.76	0.262
297.12	0.279
297.49	0.164
297.85	-0.006
298.21	-0.143
298.57	-0.316
298.93	-0.297
299.29	-0.444
299.65	-0.432
300.01	-0.562
300.37	-0.678
300.73	-0.602
301.09	-0.496
301.45	-0.468
301.81	-0.259
302.17	-0.100
302.53	-0.154
302.89	-0.392
303.25	-0.269
303.61	-0.268
303.97	-0.384
304.33	-0.351
304.69	-0.388
305.05	-0.413
305.41	-0.342
305.77	-0.403
306.13	-0.417
306.49	-0.301
306.85	-0.047
307.21	-0.045
307.57	-0.044
307.93	0.145
308.29	0.226
308.65	0.204
309.01	0.170
309.37	0.099
309.73	0.092
310.09	0.217
310.45	0.313
310.81	0.219
311.17	0.117
311.53	0.054
311.89	0.049
312.25	-0.102
312.61	-0.172
312.96	-0.136
313.32	-0.157
313.68	-0.241
314.04	-0.425
314.40	-0.381
314.76	-0.369
315.12	-0.277
315.48	-0.135
315.84	-0.212
316.20	-0.167
316.56	-0.256
316.92	-0.275
317.27	-0.261
317.63	-0.184
317.99	-0.119
318.35	-0.233
318.71	-0.225
319.07	-0.155
319.43	-0.166
319.79	-0.097
320.15	-0.065
320.50	0.115
320.86	0.097
321.22	0.054
321.58	0.048
321.94	0.024
322.30	0.047
322.66	0.018
323.01	-0.142
323.37	-0.228
323.73	-0.302
324.09	-0.365
324.45	-0.368
324.81	-0.419
325.17	-0.295
325.52	-0.353
325.88	-0.432
326.24	-0.438
326.60	-0.476
326.96	-0.425
327.31	-0.373
327.67	-0.358
328.03	-0.411
328.39	-0.470
328.75	-0.363
329.11	-0.340
329.46	-0.254
329.82	-0.200
330.18	-0.267
330.54	-0.256
330.90	-0.279
331.25	-0.288
331.61	-0.229
331.97	-0.131
332.33	-0.099
332.68	-0.004
333.04	-0.063
333.40	-0.190
333.76	-0.256
334.11	-0.186
334.47	-0.113
334.83	-0.122
335.19	-0.145
335.54	-0.177
335.90	-0.269
336.26	-0.250
336.62	-0.447
336.97	-0.581
337.33	-0.642
337.69	-0.611
338.05	-0.708
338.40	-0.832
338.76	-0.838
339.12	-0.797
339.48	-0.859
339.83	-0.782
340.19	-0.808
340.55	-0.630
340.90	-0.564
341.26	-0.483
341.62	-0.495
341.97	-0.482
342.33	-0.375
342.69	-0.316
343.04	-0.361
343.40	-0.384
343.76	-0.482
344.12	-0.420
344.47	-0.499
344.83	-0.478
345.19	-0.410
345.54	-0.362
345.90	-0.314
346.26	-0.332
346.61	-0.326
346.97	-0.298
347.32	-0.209
347.68	-0.158
348.04	-0.203
348.39	-0.225
348.75	-0.227
349.11	-0.234
349.46	-0.288
349.82	-0.342
350.18	-0.374
350.53	-0.380
350.89	-0.348
351.24	-0.405
351.60	-0.359
351.96	-0.306
352.31	-0.286
352.67	-0.245
353.02	-0.294
353.38	-0.240
353.74	-0.169
354.09	-0.171
354.45	-0.162
354.80	-0.183
355.16	-0.096
355.52	-0.073
355.87	-0.135
356.23	-0.065
356.58	-0.061
356.94	0.010
357.29	0.078
357.65	0.139
358.00	0.262
358.36	0.312
358.72	0.379
359.07	0.392
359.43	0.460
359.78	0.583
360.14	0.625
360.49	0.685
360.85	0.764
361.20	0.766
361.56	0.766
361.91	0.761
362.27	0.816
362.62	0.885
362.98	0.972
363.33	0.996
363.69	1.011
364.04	1.084
364.40	1.129
364.75	1.110
365.11	1.173
365.46	1.181
365.82	1.286
366.17	1.334
366.53	1.344
366.88	1.416
367.24	1.481
367.59	1.505
367.95	1.552
368.30	1.598
368.66	1.702
369.01	1.718
369.37	1.805
369.72	1.825
370.08	1.902
370.43	1.956
370.78	1.937
371.14	1.931
371.49	2.055
371.85	2.060
372.20	2.103
372.56	2.128
372.91	2.173
373.26	2.243
373.62	2.223
373.97	2.250
374.33	2.259
374.68	2.330
375.03	2.412
375.39	2.381
375.74	2.390
376.10	2.411
376.45	2.476
376.80	2.543
377.16	2.547
377.51	2.642
377.87	2.686
378.22	2.705
378.57	2.714
378.93	2.772
379.28	2.836
379.63	2.880
379.99	2.932
380.34	2.922
380.70	2.947
381.05	3.031
381.40	3.028
381.76	3.029
382.11	3.086
382.46	3.155
382.82	3.164
383.17	3.175
383.52	3.190
383.88	3.202
384.23	3.244
384.58	3.240
384.94	3.173
385.29	3.227
385.64	3.262
385.99	3.294
386.35	3.267
386.70	3.275
387.05	3.269
387.41	3.326
387.76	3.319
388.11	3.317
388.47	3.327
388.82	3.392
389.17	3.397
389.52	3.407
389.88	3.413
390.23	3.432
390.58	3.447
390.93	3.476
391.29	3.485
391.64	3.539
391.99	3.555
392.34	3.588
392.70	3.571
393.05	3.556
393.40	3.564
393.75	3.583
394.11	3.611
394.46	3.614
394.81	3.614
395.16	3.555
395.52	3.545
395.87	3.541
396.22	3.534
396.57	3.539
396.92	3.519
397.28	3.498
397.63	3.449
397.98	3.406
398.33	3.391
398.68	3.379
399.04	3.405
399.39	3.382
399.74	3.348
400.09	3.348
400.44	3.355
400.80	3.356
401.15	3.354
401.50	3.368
401.85	3.380
402.20	3.365
402.55	3.365
402.90	3.328
403.26	3.327
403.61	3.324
403.96	3.314
404.31	3.325
404.66	3.327
405.01	3.294
405.36	3.295
405.72	3.304
406.07	3.303
406.42	3.296
406.77	3.316
407.12	3.306
407.47	3.336
407.82	3.326
408.17	3.286
408.53	3.274
408.88	3.277
409.23	3.248
409.58	3.182
409.93	3.181
410.28	3.179
410.63	3.171
410.98	3.183
411.33	3.168
411.68	3.165
412.03	3.189
412.38	3.168
412.73	3.183
413.09	3.238
413.44	3.285
413.79	3.292
414.14	3.304
414.49	3.317
414.84	3.324
415.19	3.336
415.54	3.363
415.89	3.352
416.24	3.387
416.59	3.412
416.94	3.406
417.29	3.416
417.64	3.404
417.99	3.412
418.34	3.430
418.69	3.441
419.04	3.443
419.39	3.441
419.74	3.457
420.09	3.469
420.44	3.459
420.79	3.468
421.14	3.479
421.49	3.499
421.84	3.497
422.19	3.506
422.54	3.494
422.89	3.495
423.24	3.497
423.59	3.496
423.94	3.465
424.29	3.467
424.64	3.468
424.99	3.453
425.34	3.438
425.68	3.430
426.03	3.408
426.38	3.418
426.73	3.417
427.08	3.387
427.43	3.398
427.78	3.429
428.13	3.417
428.48	3.369
428.83	3.366
429.18	3.361
429.53	3.351
429.87	3.328
430.22	3.297
430.57	3.292
430.92	3.293
431.27	3.271
431.62	3.239
431.97	3.239
432.32	3.257
432.67	3.242
433.01	3.217
433.36	3.207
433.71	3.216
434.06	3.213
434.41	3.208
434.76	3.225
435.11	3.234
435.45	3.241
435.80	3.254
436.15	3.261
436.50	3.283
436.85	3.316
437.20	3.322
437.54	3.323
437.89	3.337
438.24	3.354
438.59	3.348
438.94	3.346
439.29	3.350
439.63	3.353
439.98	3.343
440.33	3.331
440.68	3.347
441.03	3.367
441.37	3.384
441.72	3.396
442.07	3.405
442.42	3.428
442.76	3.450
443.11	3.477
443.46	3.494
443.81	3.516
444.16	3.535
444.50	3.546
444.85	3.551
445.20	3.563
445.55	3.580
445.89	3.594
446.24	3.606
446.59	3.592
446.94	3.590
447.28	3.585
447.63	3.593
447.98	3.595
448.32	3.585
448.67	3.590
449.02	3.574
449.37	3.576
449.71	3.578
450.06	3.569
450.41	3.593
450.75	3.594
451.10	3.608
451.45	3.607
451.79	3.606
452.14	3.617
452.49	3.627
452.84	3.642
453.18	3.640
453.53	3.629
453.88	3.630
454.22	3.639
454.57	3.658
454.92	3.672
455.26	3.685
455.61	3.724
455.95	3.749
456.30	3.764
456.65	3.792
456.99	3.815
457.34	3.845
457.69	3.866
458.03	3.871
458.38	3.892
458.73	3.888
459.07	3.890
459.42	3.866
459.76	3.842
460.11	3.819
460.46	3.781
460.80	3.763
461.15	3.723
461.49	3.705
461.84	3.704
462.19	3.678
462.53	3.672
462.88	3.667
463.22	3.651
463.57	3.657
463.91	3.664
464.26	3.682
464.61	3.691
464.95	3.684
465.30	3.673
465.64	3.667
465.99	3.678
466.33	3.686
466.68	3.683
467.02	3.685
467.37	3.671
467.71	3.651
468.06	3.650
468.41	3.627
468.75	3.627
469.10	3.617
469.44	3.590
469.79	3.553
470.13	3.513
470.48	3.494
470.82	3.485
471.17	3.504
471.51	3.508
471.86	3.498
472.20	3.497
472.55	3.502
472.89	3.520
473.23	3.517
473.58	3.522
473.92	3.537
474.27	3.535
474.61	3.519
474.96	3.494
475.30	3.513
475.65	3.510
475.99	3.497
476.34	3.494
476.68	3.471
477.02	3.482
477.37	3.480
477.71	3.498
478.06	3.531
478.40	3.602
478.75	3.675
479.09	3.759
479.43	3.862
479.78	3.980
480.12	4.101
480.47	4.231
480.81	4.342
481.15	4.452
481.50	4.562
481.84	4.688
482.19	4.801
482.53	4.904
482.87	4.970
483.22	4.976
483.56	4.936
483.90	4.853
484.25	4.747
484.59	4.639
484.94	4.542
485.28	4.441
485.62	4.323
485.97	4.210
486.31	4.119
486.65	4.043
487.00	4.020
487.34	4.027
487.68	4.055
488.03	4.093
488.37	4.140
488.71	4.174
489.06	4.190
489.40	4.214
489.74	4.221
490.09	4.208
490.43	4.208
490.77	4.191
491.11	4.172
491.46	4.166
491.80	4.160
492.14	4.135
492.49	4.136
492.83	4.127
493.17	4.103
493.51	4.090
493.86	4.088
494.20	4.087
494.54	4.093
494.88	4.132
495.23	4.163
495.57	4.204
495.91	4.262
496.25	4.293
496.60	4.341
496.94	4.380
497.28	4.419
497.62	4.465
497.97	4.504
498.31	4.554
498.65	4.594
498.99	4.629
499.33	4.676
499.68	4.725
500.02	4.771
500.36	4.804
500.70	4.861
501.04	4.904
501.39	4.948
501.73	5.009
502.07	5.086
502.41	5.140
502.75	5.220
503.09	5.278
503.44	5.335
503.78	5.402
504.12	5.479
504.46	5.562
504.80	5.642
505.14	5.730
505.49	5.821
505.83	5.888
506.17	5.982
506.51	6.062
506.85	6.150
507.19	6.244
507.53	6.326
507.87	6.418
508.22	6.479
508.56	6.564
508.90	6.636
509.24	6.705
509.58	6.786
509.92	6.861
510.26	6.942
510.60	7.016
510.94	7.103
511.28	7.191
511.63	7.271
511.97	7.375
512.31	7.483
512.65	7.590
512.99	7.703
513.33	7.842
513.67	7.964
514.01	8.084
514.35	8.229
514.69	8.357
515.03	8.471
515.37	8.597
515.71	8.714
516.05	8.824
516.39	8.923
516.73	9.015
517.07	9.084
517.41	9.162
517.75	9.238
518.09	9.298
518.43	9.355
518.77	9.410
519.11	9.460
519.45	9.506
519.79	9.585
520.13	9.646
520.47	9.738
520.81	9.842
521.15	9.934
521.49	10.032
521.83	10.141
522.17	10.246
522.51	10.368
522.85	10.516
523.19	10.659
523.53	10.818
523.87	11.013
524.21	11.189
524.55	11.359
524.89	11.514
525.23	11.676
525.57	11.812
525.91	11.933
526.25	12.049
526.58	12.160
526.92	12.248
527.26	12.304
527.60	12.326
527.94	12.350
528.28	12.350
528.62	12.361
528.96	12.332
529.30	12.314
529.64	12.301
529.97	12.277
530.31	12.252
530.65	12.241
530.99	12.238
531.33	12.258
531.67	12.270
532.01	12.291
532.35	12.303
532.68	12.334
533.02	12.341
533.36	12.336
533.70	12.345
534.04	12.333
534.38	12.333
534.71	12.335
535.05	12.335
535.39	12.322
535.73	12.319
536.07	12.322
536.41	12.331
536.74	12.356
537.08	12.382
537.42	12.427
537.76	12.463
538.10	12.520
538.43	12.574
538.77	12.629
539.11	12.676
539.45	12.721
539.79	12.764
540.12	12.795
540.46	12.811
540.80	12.828
541.14	12.822
541.47	12.795
541.81	12.772
542.15	12.738
542.49	12.695
542.82	12.661
543.16	12.620
543.50	12.571
543.84	12.536
544.17	12.507
544.51	12.489
544.85	12.466
545.18	12.474
545.52	12.464
545.86	12.459
546.20	12.465
546.53	12.448
546.87	12.444
547.21	12.440
547.54	12.429
547.88	12.426
548.22	12.410
548.55	12.403
548.89	12.400
549.23	12.404
549.56	12.403
549.90	12.412
550.24	12.432
550.57	12.430
550.91	12.432
551.25	12.456
551.58	12.452
551.92	12.444
552.26	12.442
552.59	12.438
552.93	12.406
553.27	12.398
553.60	12.379
553.94	12.357
554.27	12.343
554.61	12.311
554.95	12.271
555.28	12.242
555.62	12.228
555.95	12.211
556.29	12.206
556.63	12.188
556.96	12.154
557.30	12.120
557.63	12.083
557.97	12.039
558.31	12.006
558.64	11.948
558.98	11.914
559.31	11.894
559.65	11.848
559.98	11.800
560.32	11.761
560.65	11.715
560.99	11.669
561.33	11.625
561.66	11.590
562.00	11.564
562.33	11.548
562.67	11.520
563.00	11.479
563.34	11.455
563.67	11.432
564.01	11.382
564.34	11.359
564.68	11.333
565.01	11.294
565.35	11.268
565.68	11.237
566.02	11.179
566.35	11.149
566.69	11.078
567.02	11.051
567.36	10.954
567.69	10.909
568.03	10.844
568.36	10.777
568.69	10.702
569.03	10.642
569.36	10.574
569.70	10.521
570.03	10.473
570.37	10.439
570.70	10.369
571.04	10.345
571.37	10.302
571.70	10.265
572.04	10.224
572.37	10.199
572.71	10.136
573.04	10.089
573.37	10.059
573.71	9.998
574.04	9.936
574.38	9.879
574.71	9.845
575.04	9.787
575.38	9.724
575.71	9.663
576.05	9.620
576.38	9.594
576.71	9.546
577.05	9.502
577.38	9.449
577.71	9.382
578.05	9.333
578.38	9.269
578.71	9.216
579.05	9.170
579.38	9.116
579.71	9.061
580.05	8.999
580.38	8.953
580.71	8.875
581.05	8.849
581.38	8.844
581.71	8.833
582.05	8.799
582.38	8.795
582.71	8.772
583.04	8.774
583.38	8.740
583.71	8.711
584.04	8.694
584.38	8.690
584.71	8.669
585.04	8.662
585.37	8.623
585.71	8.609
586.04	8.562
586.37	8.574
586.70	8.556
587.04	8.563
587.37	8.564
587.70	8.553
588.03	8.547
588.37	8.531
588.70	8.514
589.03	8.512
589.36	8.512
589.69	8.504
590.03	8.455
590.36	8.415
590.69	8.366
591.02	8.339
591.35	8.306
591.69	8.272
592.02	8.250
592.35	8.226
592.68	8.192
593.01	8.133
593.35	8.130
593.68	8.111
594.01	8.097
594.34	8.077
594.67	8.057
595.00	8.034
595.34	8.004
595.67	7.969
596.00	7.934
596.33	7.888
596.66	7.851
596.99	7.808
597.32	7.759
597.65	7.711
597.99	7.684
598.32	7.632
598.65	7.588
598.98	7.555
599.31	7.527
599.64	7.518
599.97	7.521
600.30	7.538
600.63	7.521
600.96	7.530
601.30	7.544
601.63	7.534
601.96	7.540
602.29	7.550
602.62	7.523
602.95	7.497
603.28	7.482
603.61	7.433
603.94	7.392
604.27	7.387
604.60	7.343
604.93	7.305
605.26	7.275
605.59	7.222
605.92	7.177
606.25	7.148
606.58	7.142
606.91	7.087
607.24	7.080
607.57	7.045
607.90	6.989
608.23	6.964
608.56	6.929
608.89	6.886
609.22	6.862
609.55	6.815
609.88	6.771
610.21	6.705
610.54	6.644
610.87	6.564
611.20	6.500
611.53	6.460
611.86	6.402
612.19	6.340
612.52	6.297
612.85	6.273
613.18	6.222
613.51	6.164
613.84	6.112
614.17	6.084
614.49	6.099
614.82	6.063
615.15	6.039
615.48	6.031
615.81	5.991
616.14	5.966
616.47	5.934
616.80	5.889
617.13	5.863
617.46	5.840
617.78	5.798
618.11	5.751
618.44	5.747
618.77	5.674
619.10	5.598
619.43	5.580
619.76	5.528
620.09	5.498
620.41	5.483
620.74	5.498
621.07	5.517
621.40	5.539
621.73	5.538
622.06	5.540
622.38	5.565
622.71	5.608
623.04	5.639
623.37	5.685
623.70	5.692
624.02	5.730
624.35	5.739
624.68	5.720
625.01	5.721
625.34	5.747
625.66	5.775
625.99	5.788
626.32	5.793
626.65	5.806
626.98	5.784
627.30	5.776
627.63	5.743
627.96	5.695
628.29	5.676
628.61	5.664
628.94	5.615
629.27	5.556
629.60	5.525
629.92	5.516
630.25	5.449
630.58	5.428
630.91	5.388
631.23	5.385
631.56	5.399
631.89	5.368
632.21	5.340
632.54	5.297
632.87	5.256
633.19	5.203
633.52	5.137
633.85	5.097
634.18	5.000
634.50	4.950
634.83	4.884
635.16	4.808
635.48	4.743
635.81	4.650
636.14	4.591
636.46	4.550
636.79	4.504
637.11	4.401
637.44	4.269
637.77	4.250
638.09	4.171
638.42	4.087
638.75	4.047
639.07	3.963
639.40	3.934
639.73	3.883
640.05	3.800
640.38	3.781
640.70	3.733
641.03	3.735
641.36	3.677
641.68	3.658
642.01	3.625
642.33	3.568
642.66	3.578
642.98	3.495
643.31	3.464
643.64	3.449
643.96	3.380
644.29	3.414
644.61	3.416
644.94	3.399
645.26	3.414
645.59	3.442
645.91	3.436
646.24	3.439
646.56	3.422
646.89	3.413
647.22	3.374
647.54	3.342
647.87	3.310
