OOIBase32 Version 2.0.0.6 Data File
++++++++++++++++++++++++++++++++++++
Date: 01-23-2012, 23:19:07
User: Valued Ocean Optics Customer
Spectrometer Serial Number: USB2E2917
Spectrometer Channel: Master
Integration Time (msec): 5
Spectra Averaged: 10
Boxcar Smoothing: 5
Correct for Electrical Dark: Enabled
Time Normalized: Disabled
Dual-beam Reference: Disabled
Reference Channel: Master
Temperature: Not acquired
Spectrometer Type: S2000
ADC Type: USB2000
Number of Pixels in File: 2048
Graph Title: 
>>>>>Begin Spectral Data<<<<<
180.30	0.000
180.67	0.000
181.03	49.940
181.40	647.315
181.77	-1457.416
182.14	-28.422
182.51	-607.552
182.88	288.474
183.25	65.750
183.62	99.063
183.99	335.790
184.36	-126.658
184.73	473.154
185.10	27.606
185.46	-975.911
185.83	-473.855
186.20	939.093
186.57	181.085
186.94	73.288
187.31	3.781
187.68	104.018
188.05	-65.862
188.42	-104.967
188.78	-243.181
189.15	-590.808
189.52	222.505
189.89	119.620
190.26	122.832
190.63	72.518
191.00	76.216
191.37	62.780
191.73	60.690
192.10	54.087
192.47	46.137
192.84	33.286
193.21	36.585
193.58	28.860
193.94	24.890
194.31	23.465
194.68	20.349
195.05	13.030
195.42	9.370
195.79	-6.037
196.15	-16.157
196.52	-33.115
196.89	-16.891
197.26	-25.185
197.63	-14.094
198.00	-9.814
198.36	-29.089
198.73	-68.739
199.10	-70.665
199.47	-63.444
199.84	-63.776
200.20	-58.010
200.57	-41.541
200.94	-51.866
201.31	-42.810
201.68	-49.712
202.04	-37.441
202.41	-37.619
202.78	-47.799
203.15	-48.124
203.51	-33.927
203.88	-31.146
204.25	-35.496
204.62	-32.030
204.98	-28.764
205.35	-37.659
205.72	-39.001
206.09	-40.830
206.46	-72.249
206.82	-36.439
207.19	-44.894
207.56	-97.238
207.92	-83.050
208.29	-77.411
208.66	-53.251
209.03	-48.648
209.39	-19.334
209.76	-4.657
210.13	-29.012
210.50	-19.937
210.86	-19.850
211.23	-26.298
211.60	-6.898
211.96	-17.084
212.33	-26.467
212.70	-43.932
213.07	-49.536
213.43	-89.999
213.80	-104.383
214.17	-63.170
214.53	-45.707
214.90	-41.566
215.27	-33.636
215.63	-39.516
216.00	-27.868
216.37	-21.343
216.74	-29.347
217.10	-20.285
217.47	-21.670
217.84	-8.827
218.20	-9.873
218.57	-9.970
218.94	-11.434
219.30	-17.393
219.67	-19.768
220.04	-17.293
220.40	-18.599
220.77	-18.638
221.13	-20.384
221.50	-19.012
221.87	-28.376
222.23	-28.472
222.60	-31.401
222.97	-29.524
223.33	-23.596
223.70	-17.963
224.07	-17.498
224.43	-17.901
224.80	-15.903
225.16	-16.581
225.53	-17.307
225.90	-17.815
226.26	-15.595
226.63	-13.640
226.99	-11.444
227.36	-8.641
227.73	-6.594
228.09	-6.935
228.46	-3.970
228.82	-2.484
229.19	-1.928
229.56	-0.512
229.92	3.496
230.29	5.294
230.65	6.251
231.02	4.430
231.38	1.195
231.75	-0.521
232.12	-1.293
232.48	-3.942
232.85	-4.097
233.21	-4.498
233.58	-5.411
233.94	-5.410
234.31	-7.596
234.68	-8.875
235.04	-7.171
235.41	-5.236
235.77	-3.403
236.14	-2.754
236.50	-1.180
236.87	-0.147
237.23	0.847
237.60	-0.007
237.96	-1.344
238.33	-1.728
238.69	-2.309
239.06	-2.646
239.42	-2.109
239.79	-3.124
240.15	-2.766
240.52	-2.337
240.88	-2.121
241.25	-2.108
241.61	-1.206
241.98	-1.182
242.34	-0.907
242.71	0.066
243.07	0.350
243.44	-0.204
243.80	-0.182
244.17	-0.389
244.53	-0.876
244.90	-1.213
245.26	-1.464
245.63	-1.443
245.99	-1.416
246.36	-1.273
246.72	-1.484
247.09	-1.802
247.45	-1.556
247.81	-1.078
248.18	-0.986
248.54	-0.567
248.91	-0.611
249.27	-0.198
249.64	-0.056
250.00	0.061
250.36	-0.480
250.73	-0.776
251.09	-0.457
251.46	-0.405
251.82	-0.703
252.19	-0.601
252.55	-0.834
252.91	-0.547
253.28	-0.676
253.64	-1.556
254.01	-1.694
254.37	-1.009
254.73	-0.339
255.10	-0.129
255.46	0.347
255.83	0.205
256.19	0.236
256.55	-0.002
256.92	0.067
257.28	0.010
257.65	0.211
258.01	0.499
258.37	0.456
258.74	0.098
259.10	-0.227
259.46	-0.469
259.83	-0.488
260.19	-0.600
260.55	-0.534
260.92	-0.631
261.28	-0.501
261.64	-0.208
262.01	-0.420
262.37	-0.629
262.73	-0.170
263.10	0.240
263.46	0.020
263.82	-0.115
264.19	-0.299
264.55	-0.630
264.91	-0.874
265.28	-1.207
265.64	-1.460
266.00	-1.482
266.37	-1.391
266.73	-1.585
267.09	-1.486
267.46	-1.400
267.82	-1.513
268.18	-1.251
268.54	-0.940
268.91	-0.699
269.27	-0.631
269.63	-0.353
270.00	-0.271
270.36	-0.201
270.72	0.014
271.08	-0.220
271.45	-0.273
271.81	-0.139
272.17	-0.309
272.53	-0.385
272.90	-0.173
273.26	0.177
273.62	-0.094
273.98	-0.287
274.35	-0.438
274.71	-0.778
275.07	-0.626
275.43	-0.480
275.80	-0.217
276.16	-0.169
276.52	-0.228
276.88	-0.641
277.25	-1.230
277.61	-1.333
277.97	-1.344
278.33	-1.085
278.69	-1.092
279.06	-1.089
279.42	-1.146
279.78	-1.353
280.14	-1.159
280.50	-1.035
280.87	-0.906
281.23	-0.659
281.59	-0.606
281.95	-0.506
282.31	-0.527
282.68	-0.543
283.04	-0.510
283.40	-0.380
283.76	-0.319
284.12	-0.360
284.48	-0.222
284.85	-0.215
285.21	-0.080
285.57	0.016
285.93	0.018
286.29	-0.134
286.65	-0.056
287.02	0.125
287.38	-0.023
287.74	-0.104
288.10	-0.119
288.46	-0.255
288.82	-0.246
289.18	-0.359
289.54	-0.342
289.91	-0.377
290.27	-0.359
290.63	-0.282
290.99	-0.328
291.35	-0.200
291.71	-0.055
292.07	-0.151
292.43	-0.210
292.79	-0.191
293.16	-0.272
293.52	-0.215
293.88	-0.106
294.24	-0.074
294.60	-0.140
294.96	-0.246
295.32	-0.260
295.68	-0.221
296.04	-0.246
296.40	-0.174
296.76	-0.158
297.12	-0.176
297.49	-0.339
297.85	-0.406
298.21	-0.333
298.57	-0.397
298.93	-0.320
299.29	-0.463
299.65	-0.552
300.01	-0.485
300.37	-0.443
300.73	-0.396
301.09	-0.384
301.45	-0.343
301.81	-0.227
302.17	-0.134
302.53	-0.208
302.89	-0.271
303.25	-0.075
303.61	-0.070
303.97	-0.152
304.33	-0.193
304.69	-0.212
305.05	-0.122
305.41	-0.073
305.77	-0.111
306.13	-0.164
306.49	-0.071
306.85	-0.019
307.21	0.059
307.57	0.150
307.93	0.268
308.29	0.288
308.65	0.273
309.01	0.311
309.37	0.299
309.73	0.246
310.09	0.254
310.45	0.257
310.81	0.194
311.17	0.048
311.53	-0.042
311.89	0.025
312.25	0.042
312.61	0.020
312.96	0.068
313.32	0.217
313.68	0.159
314.04	0.066
314.40	0.168
314.76	0.118
315.12	0.129
315.48	0.177
315.84	0.012
316.20	-0.011
316.56	-0.117
316.92	-0.198
317.27	-0.411
317.63	-0.304
317.99	-0.376
318.35	-0.365
318.71	-0.240
319.07	-0.167
319.43	-0.249
319.79	-0.152
320.15	-0.207
320.50	-0.059
320.86	-0.114
321.22	-0.057
321.58	-0.158
321.94	-0.136
322.30	-0.233
322.66	-0.307
323.01	-0.443
323.37	-0.397
323.73	-0.456
324.09	-0.527
324.45	-0.562
324.81	-0.609
325.17	-0.557
325.52	-0.517
325.88	-0.529
326.24	-0.438
326.60	-0.415
326.96	-0.297
327.31	-0.359
327.67	-0.390
328.03	-0.322
328.39	-0.395
328.75	-0.290
329.11	-0.297
329.46	-0.346
329.82	-0.263
330.18	-0.295
330.54	-0.276
330.90	-0.260
331.25	-0.220
331.61	-0.139
331.97	-0.100
332.33	0.009
332.68	0.026
333.04	0.054
333.40	0.026
333.76	0.038
334.11	0.020
334.47	0.028
334.83	-0.065
335.19	-0.081
335.54	-0.125
335.90	-0.117
336.26	-0.129
336.62	-0.176
336.97	-0.267
337.33	-0.184
337.69	-0.168
338.05	-0.173
338.40	-0.198
338.76	-0.090
339.12	0.028
339.48	0.066
339.83	0.067
340.19	0.121
340.55	0.207
340.90	0.199
341.26	0.148
341.62	0.124
341.97	0.112
342.33	0.106
342.69	0.086
343.04	0.060
343.40	-0.059
343.76	-0.120
344.12	-0.110
344.47	-0.158
344.83	-0.070
345.19	0.023
345.54	0.091
345.90	0.101
346.26	0.117
346.61	0.119
346.97	0.108
347.32	0.282
347.68	0.300
348.04	0.211
348.39	0.159
348.75	0.153
349.11	0.169
349.46	0.081
349.82	0.115
350.18	0.125
350.53	0.133
350.89	0.127
351.24	0.062
351.60	0.126
351.96	0.179
352.31	0.223
352.67	0.250
353.02	0.225
353.38	0.248
353.74	0.278
354.09	0.303
354.45	0.341
354.80	0.339
355.16	0.363
355.52	0.347
355.87	0.288
356.23	0.313
356.58	0.295
356.94	0.325
357.29	0.364
357.65	0.392
358.00	0.385
358.36	0.335
358.72	0.347
359.07	0.376
359.43	0.427
359.78	0.489
360.14	0.470
360.49	0.451
360.85	0.426
361.20	0.395
361.56	0.343
361.91	0.346
362.27	0.372
362.62	0.387
362.98	0.400
363.33	0.364
363.69	0.313
364.04	0.383
364.40	0.437
364.75	0.441
365.11	0.461
365.46	0.447
365.82	0.494
366.17	0.540
366.53	0.549
366.88	0.509
367.24	0.554
367.59	0.595
367.95	0.598
368.30	0.581
368.66	0.637
369.01	0.666
369.37	0.737
369.72	0.730
370.08	0.760
370.43	0.766
370.78	0.803
371.14	0.770
371.49	0.832
371.85	0.832
372.20	0.863
372.56	0.846
372.91	0.871
373.26	0.899
373.62	0.891
373.97	0.914
374.33	0.915
374.68	0.929
375.03	1.011
375.39	0.999
375.74	1.009
376.10	1.029
376.45	1.067
376.80	1.076
377.16	1.060
377.51	1.124
377.87	1.144
378.22	1.146
378.57	1.158
378.93	1.178
379.28	1.202
379.63	1.216
379.99	1.287
380.34	1.294
380.70	1.323
381.05	1.416
381.40	1.399
381.76	1.431
382.11	1.485
382.46	1.555
382.82	1.580
383.17	1.619
383.52	1.640
383.88	1.610
384.23	1.613
384.58	1.620
384.94	1.588
385.29	1.632
385.64	1.653
385.99	1.713
386.35	1.756
386.70	1.772
387.05	1.756
387.41	1.783
387.76	1.790
388.11	1.835
388.47	1.874
388.82	1.884
389.17	1.905
389.52	1.912
389.88	1.920
390.23	1.899
390.58	1.932
390.93	1.996
391.29	2.032
391.64	2.060
391.99	2.091
392.34	2.105
392.70	2.131
393.05	2.120
393.40	2.114
393.75	2.094
394.11	2.092
394.46	2.044
394.81	2.017
395.16	1.992
395.52	1.986
395.87	1.956
396.22	1.976
396.57	1.965
396.92	1.965
397.28	1.952
397.63	1.964
397.98	1.942
398.33	1.968
398.68	1.973
399.04	1.979
399.39	1.959
399.74	1.982
400.09	1.952
400.44	1.967
400.80	1.951
401.15	1.952
401.50	1.932
401.85	1.986
402.20	1.968
402.55	2.000
402.90	1.980
403.26	2.022
403.61	1.989
403.96	1.994
404.31	1.987
404.66	2.022
405.01	2.011
405.36	2.050
405.72	2.026
406.07	2.023
406.42	1.994
406.77	1.999
407.12	1.984
407.47	2.019
407.82	2.001
408.17	1.985
408.53	1.943
408.88	1.927
409.23	1.873
409.58	1.836
409.93	1.841
410.28	1.831
410.63	1.820
410.98	1.802
411.33	1.777
411.68	1.788
412.03	1.825
412.38	1.823
412.73	1.857
413.09	1.897
413.44	1.911
413.79	1.918
414.14	1.921
414.49	1.962
414.84	1.983
415.19	1.996
415.54	2.015
415.89	1.999
416.24	2.042
416.59	2.062
416.94	2.071
417.29	2.103
417.64	2.106
417.99	2.129
418.34	2.141
418.69	2.155
419.04	2.154
419.39	2.168
419.74	2.178
420.09	2.183
420.44	2.178
420.79	2.176
421.14	2.166
421.49	2.184
421.84	2.166
422.19	2.175
422.54	2.167
422.89	2.179
423.24	2.165
423.59	2.160
423.94	2.146
424.29	2.126
424.64	2.110
424.99	2.099
425.34	2.065
425.68	2.077
426.03	2.020
426.38	2.009
426.73	1.985
427.08	1.964
427.43	1.960
427.78	1.964
428.13	1.980
428.48	1.992
428.83	1.997
429.18	2.014
429.53	1.994
429.87	2.002
430.22	1.997
430.57	2.007
430.92	1.998
431.27	2.010
431.62	1.992
431.97	1.992
432.32	1.985
432.67	1.969
433.01	1.937
433.36	1.935
433.71	1.922
434.06	1.902
434.41	1.867
434.76	1.890
435.11	1.865
435.45	1.869
435.80	1.848
436.15	1.862
436.50	1.876
436.85	1.907
437.20	1.916
437.54	1.938
437.89	1.961
438.24	1.990
438.59	1.982
438.94	1.988
439.29	1.978
439.63	2.010
439.98	1.999
440.33	1.984
440.68	1.985
441.03	1.991
441.37	2.010
441.72	2.007
442.07	2.010
442.42	2.043
442.76	2.057
443.11	2.085
443.46	2.097
443.81	2.110
444.16	2.137
444.50	2.150
444.85	2.157
445.20	2.148
445.55	2.166
445.89	2.181
446.24	2.175
446.59	2.160
446.94	2.160
447.28	2.148
447.63	2.146
447.98	2.159
448.32	2.140
448.67	2.136
449.02	2.139
449.37	2.127
449.71	2.132
450.06	2.136
450.41	2.165
450.75	2.175
451.10	2.188
451.45	2.184
451.79	2.161
452.14	2.173
452.49	2.179
452.84	2.175
453.18	2.176
453.53	2.160
453.88	2.149
454.22	2.163
454.57	2.167
454.92	2.187
455.26	2.213
455.61	2.254
455.95	2.298
456.30	2.320
456.65	2.366
456.99	2.393
457.34	2.426
457.69	2.448
458.03	2.458
458.38	2.476
458.73	2.490
459.07	2.499
459.42	2.481
459.76	2.455
460.11	2.430
460.46	2.382
460.80	2.354
461.15	2.324
461.49	2.291
461.84	2.277
462.19	2.244
462.53	2.196
462.88	2.191
463.22	2.184
463.57	2.178
463.91	2.178
464.26	2.194
464.61	2.205
464.95	2.199
465.30	2.210
465.64	2.201
465.99	2.215
466.33	2.221
466.68	2.217
467.02	2.210
467.37	2.206
467.71	2.196
468.06	2.186
468.41	2.183
468.75	2.187
469.10	2.171
469.44	2.159
469.79	2.136
470.13	2.109
470.48	2.082
470.82	2.074
471.17	2.064
471.51	2.067
471.86	2.060
472.20	2.042
472.55	2.025
472.89	2.035
473.23	2.037
473.58	2.050
473.92	2.064
474.27	2.065
474.61	2.057
474.96	2.079
475.30	2.088
475.65	2.077
475.99	2.082
476.34	2.090
476.68	2.080
477.02	2.079
477.37	2.085
477.71	2.113
478.06	2.149
478.40	2.218
478.75	2.264
479.09	2.339
479.43	2.445
479.78	2.546
480.12	2.642
480.47	2.738
480.81	2.834
481.15	2.921
481.50	3.013
481.84	3.099
482.19	3.186
482.53	3.270
482.87	3.328
483.22	3.342
483.56	3.313
483.90	3.263
484.25	3.200
484.59	3.123
484.94	3.053
485.28	2.974
485.62	2.909
485.97	2.828
486.31	2.754
486.65	2.696
487.00	2.667
487.34	2.666
487.68	2.677
488.03	2.701
488.37	2.735
488.71	2.752
489.06	2.760
489.40	2.763
489.74	2.764
490.09	2.772
490.43	2.771
490.77	2.764
491.11	2.756
491.46	2.760
491.80	2.751
492.14	2.728
492.49	2.726
492.83	2.726
493.17	2.710
493.51	2.706
493.86	2.710
494.20	2.717
494.54	2.728
494.88	2.761
495.23	2.788
495.57	2.823
495.91	2.885
496.25	2.941
496.60	2.981
496.94	3.023
497.28	3.062
497.62	3.099
497.97	3.143
498.31	3.187
498.65	3.224
498.99	3.278
499.33	3.342
499.68	3.389
500.02	3.430
500.36	3.491
500.70	3.549
501.04	3.609
501.39	3.656
501.73	3.719
502.07	3.804
502.41	3.878
502.75	3.950
503.09	4.022
503.44	4.104
503.78	4.180
504.12	4.253
504.46	4.365
504.80	4.467
505.14	4.575
505.49	4.670
505.83	4.752
506.17	4.850
506.51	4.934
506.85	5.023
507.19	5.117
507.53	5.209
507.87	5.310
508.22	5.393
508.56	5.477
508.90	5.555
509.24	5.654
509.58	5.743
509.92	5.850
510.26	5.960
510.60	6.060
510.94	6.162
511.28	6.268
511.63	6.369
511.97	6.477
512.31	6.593
512.65	6.719
512.99	6.848
513.33	7.021
513.67	7.169
514.01	7.332
514.35	7.481
514.69	7.631
515.03	7.781
515.37	7.952
515.71	8.091
516.05	8.232
516.39	8.361
516.73	8.488
517.07	8.585
517.41	8.674
517.75	8.760
518.09	8.861
518.43	8.963
518.77	9.043
519.11	9.127
519.45	9.205
519.79	9.299
520.13	9.395
520.47	9.511
520.81	9.626
521.15	9.769
521.49	9.891
521.83	10.033
522.17	10.151
522.51	10.311
522.85	10.453
523.19	10.632
523.53	10.818
523.87	11.020
524.21	11.208
524.55	11.415
524.89	11.598
525.23	11.795
525.57	11.942
525.91	12.099
526.25	12.236
526.58	12.368
526.92	12.487
527.26	12.571
527.60	12.639
527.94	12.701
528.28	12.736
528.62	12.766
528.96	12.759
529.30	12.774
529.64	12.768
529.97	12.769
530.31	12.763
530.65	12.767
530.99	12.796
531.33	12.825
531.67	12.854
532.01	12.889
532.35	12.918
532.68	12.957
533.02	12.995
533.36	13.026
533.70	13.037
534.04	13.062
534.38	13.067
534.71	13.077
535.05	13.083
535.39	13.089
535.73	13.077
536.07	13.081
536.41	13.105
536.74	13.127
537.08	13.161
537.42	13.214
537.76	13.260
538.10	13.324
538.43	13.377
538.77	13.436
539.11	13.486
539.45	13.542
539.79	13.582
540.12	13.630
540.46	13.658
540.80	13.685
541.14	13.691
541.47	13.673
541.81	13.657
542.15	13.640
542.49	13.611
542.82	13.576
543.16	13.550
543.50	13.532
543.84	13.501
544.17	13.472
544.51	13.450
544.85	13.443
545.18	13.451
545.52	13.444
545.86	13.446
546.20	13.475
546.53	13.489
546.87	13.483
547.21	13.477
547.54	13.443
547.88	13.425
548.22	13.411
548.55	13.397
548.89	13.402
549.23	13.404
549.56	13.400
549.90	13.395
550.24	13.397
550.57	13.408
550.91	13.389
551.25	13.412
551.58	13.424
551.92	13.416
552.26	13.400
552.59	13.395
552.93	13.378
553.27	13.388
553.60	13.363
553.94	13.332
554.27	13.316
554.61	13.335
554.95	13.288
555.28	13.276
555.62	13.253
555.95	13.252
556.29	13.234
556.63	13.194
556.96	13.146
557.30	13.121
557.63	13.097
557.97	13.056
558.31	12.975
558.64	12.949
558.98	12.906
559.31	12.892
559.65	12.838
559.98	12.763
560.32	12.730
560.65	12.666
560.99	12.588
561.33	12.529
561.66	12.471
562.00	12.430
562.33	12.397
562.67	12.346
563.00	12.287
563.34	12.247
563.67	12.204
564.01	12.148
564.34	12.111
564.68	12.067
565.01	12.030
565.35	11.998
565.68	11.943
566.02	11.848
566.35	11.774
566.69	11.680
567.02	11.618
567.36	11.537
567.69	11.477
568.03	11.412
568.36	11.339
568.69	11.261
569.03	11.177
569.36	11.124
569.70	11.075
570.03	11.030
570.37	10.986
570.70	10.915
571.04	10.867
571.37	10.805
571.70	10.724
572.04	10.678
572.37	10.612
572.71	10.569
573.04	10.522
573.37	10.463
573.71	10.403
574.04	10.358
574.38	10.317
574.71	10.284
575.04	10.236
575.38	10.205
575.71	10.136
576.05	10.096
576.38	10.028
576.71	9.941
577.05	9.888
577.38	9.833
577.71	9.760
578.05	9.687
578.38	9.615
578.71	9.561
579.05	9.481
579.38	9.426
579.71	9.375
580.05	9.320
580.38	9.284
580.71	9.236
581.05	9.171
581.38	9.113
581.71	9.076
582.05	9.039
582.38	9.002
582.71	8.979
583.04	8.965
583.38	8.898
583.71	8.851
584.04	8.827
584.38	8.810
584.71	8.800
585.04	8.795
585.37	8.751
585.71	8.723
586.04	8.700
586.37	8.715
586.70	8.687
587.04	8.678
587.37	8.670
587.70	8.631
588.03	8.602
588.37	8.591
588.70	8.562
589.03	8.553
589.36	8.539
589.69	8.487
590.03	8.423
590.36	8.385
590.69	8.346
591.02	8.310
591.35	8.268
591.69	8.237
592.02	8.182
592.35	8.160
592.68	8.132
593.01	8.090
593.35	8.096
593.68	8.082
594.01	8.076
594.34	8.053
594.67	8.038
595.00	8.035
595.34	7.991
595.67	7.945
596.00	7.920
596.33	7.889
596.66	7.843
596.99	7.793
597.32	7.717
597.65	7.663
597.99	7.616
598.32	7.548
598.65	7.511
598.98	7.459
599.31	7.445
599.64	7.423
599.97	7.390
600.30	7.382
600.63	7.365
600.96	7.394
601.30	7.405
601.63	7.414
601.96	7.401
602.29	7.397
602.62	7.389
602.95	7.363
603.28	7.330
603.61	7.300
603.94	7.279
604.27	7.269
604.60	7.217
604.93	7.166
605.26	7.106
605.59	7.094
605.92	7.044
606.25	7.033
606.58	7.006
606.91	6.956
607.24	6.941
607.57	6.895
607.90	6.844
608.23	6.804
608.56	6.789
608.89	6.736
609.22	6.686
609.55	6.616
609.88	6.543
610.21	6.469
610.54	6.418
610.87	6.340
611.20	6.279
611.53	6.210
611.86	6.171
612.19	6.061
612.52	6.012
612.85	5.975
613.18	5.950
613.51	5.903
613.84	5.876
614.17	5.811
614.49	5.779
614.82	5.719
615.15	5.673
615.48	5.635
615.81	5.609
616.14	5.614
616.47	5.553
616.80	5.515
617.13	5.471
617.46	5.420
617.78	5.406
618.11	5.377
618.44	5.372
618.77	5.335
619.10	5.307
619.43	5.284
619.76	5.237
620.09	5.230
620.41	5.219
620.74	5.222
621.07	5.252
621.40	5.232
621.73	5.229
622.06	5.229
622.38	5.272
622.71	5.272
623.04	5.281
623.37	5.312
623.70	5.291
624.02	5.295
624.35	5.335
624.68	5.332
625.01	5.359
625.34	5.380
625.66	5.404
625.99	5.370
626.32	5.362
626.65	5.365
626.98	5.363
627.30	5.372
627.63	5.347
627.96	5.299
628.29	5.280
628.61	5.227
628.94	5.165
629.27	5.088
629.60	5.053
629.92	5.026
630.25	4.972
630.58	4.909
630.91	4.888
631.23	4.855
631.56	4.835
631.89	4.748
632.21	4.758
632.54	4.717
632.87	4.680
633.19	4.637
633.52	4.575
633.85	4.550
634.18	4.499
634.50	4.404
634.83	4.348
635.16	4.265
635.48	4.212
635.81	4.080
636.14	3.990
636.46	3.900
636.79	3.836
637.11	3.768
637.44	3.638
637.77	3.561
638.09	3.474
638.42	3.375
638.75	3.270
639.07	3.210
639.40	3.154
639.73	3.070
640.05	3.028
640.38	2.956
640.70	2.881
641.03	2.818
641.36	2.730
641.68	2.720
642.01	2.659
642.33	2.612
642.66	2.546
642.98	2.493
643.31	2.451
643.64	2.410
643.96	2.376
644.29	2.353
644.61	2.359
644.94	2.383
645.26	2.359
645.59	2.387
645.91	2.413
646.24	2.434
646.56	2.423
646.89	2.441
647.22	2.421
647.54	2.422
647.87	2.408
648.19	2.359
