OOIBase32 Version 2.0.0.6 Data File
++++++++++++++++++++++++++++++++++++
Date: 01-24-2012, 17:46:56
User: Valued Ocean Optics Customer
Spectrometer Serial Number: USB2E2917
Spectrometer Channel: Master
Integration Time (msec): 7
Spectra Averaged: 10
Boxcar Smoothing: 5
Correct for Electrical Dark: Enabled
Time Normalized: Disabled
Dual-beam Reference: Disabled
Reference Channel: Master
Temperature: Not acquired
Spectrometer Type: S2000
ADC Type: USB2000
Number of Pixels in File: 2048
Graph Title: 
>>>>>Begin Spectral Data<<<<<
180.30	0.000
180.67	0.000
181.03	-108.635
181.40	-116461.905
181.77	-319.063
182.14	437.299
182.51	-166.776
182.88	119.286
183.25	112.391
183.62	42.229
183.99	25.144
184.36	-19.234
184.73	43.045
185.10	166.026
185.46	-49.639
185.83	-336.027
186.20	294.721
186.57	-267.468
186.94	-96.870
187.31	86.675
187.68	-50.684
188.05	74.064
188.42	45.658
188.78	74.071
189.15	43.840
189.52	59.778
189.89	36.959
190.26	14.536
190.63	15.618
191.00	14.803
191.37	0.088
191.73	-7.697
192.10	-49.043
192.47	-1.442
192.84	20.001
193.21	8.371
193.58	3.118
193.94	12.259
194.31	13.627
194.68	-2.158
195.05	-22.229
195.42	-4.917
195.79	0.768
196.15	21.512
196.52	4.881
196.89	-13.372
197.26	-15.113
197.63	-23.014
198.00	-25.201
198.36	-22.397
198.73	-18.337
199.10	-30.440
199.47	-29.953
199.84	-36.272
200.20	-41.848
200.57	-61.339
200.94	-60.228
201.31	-17.114
201.68	-21.214
202.04	-19.102
202.41	-14.562
202.78	-11.696
203.15	5.533
203.51	0.928
203.88	7.426
204.25	12.173
204.62	17.889
204.98	19.853
205.35	9.432
205.72	18.896
206.09	27.554
206.46	18.896
206.82	33.632
207.19	19.563
207.56	9.432
207.92	12.259
208.29	-14.079
208.66	-40.219
209.03	-18.564
209.39	-23.703
209.76	-29.399
210.13	-33.446
210.50	-31.859
210.86	-16.605
211.23	-4.022
211.60	6.345
211.96	-3.842
212.33	7.861
212.70	22.018
213.07	11.918
213.43	10.555
213.80	16.152
214.17	26.864
214.53	34.620
214.90	20.730
215.27	26.960
215.63	27.530
216.00	25.329
216.37	20.767
216.74	25.329
217.10	30.718
217.47	24.939
217.84	-2.073
218.20	-31.032
218.57	-30.904
218.94	-13.484
219.30	-21.431
219.67	-15.319
220.04	-11.450
220.40	-15.923
220.77	-15.988
221.13	-9.721
221.50	-5.572
221.87	2.688
222.23	0.962
222.60	-2.715
222.97	-6.380
223.33	-8.282
223.70	-13.012
224.07	-11.270
224.43	-9.839
224.80	-16.816
225.16	-13.753
225.53	-10.470
225.90	-11.628
226.26	-10.623
226.63	-10.905
226.99	-9.579
227.36	-7.907
227.73	-7.362
228.09	-6.154
228.46	-4.567
228.82	0.684
229.19	-1.093
229.56	-3.049
229.92	-0.556
230.29	0.372
230.65	1.615
231.02	-0.112
231.38	-0.841
231.75	-0.750
232.12	-2.105
232.48	-3.481
232.85	-3.382
233.21	-1.897
233.58	0.549
233.94	-1.229
234.31	-1.210
234.68	0.013
235.04	3.549
235.41	4.669
235.77	5.076
236.14	5.296
236.50	7.128
236.87	4.521
237.23	3.177
237.60	0.433
237.96	0.563
238.33	0.218
238.69	-0.171
239.06	0.827
239.42	0.291
239.79	0.005
240.15	-0.600
240.52	-1.727
240.88	-1.117
241.25	-0.763
241.61	0.359
241.98	0.807
242.34	1.749
242.71	1.663
243.07	0.552
243.44	0.731
243.80	1.128
244.17	1.096
244.53	1.629
244.90	1.042
245.26	1.318
245.63	0.872
245.99	0.570
246.36	0.272
246.72	0.221
247.09	0.181
247.45	0.212
247.81	0.257
248.18	0.650
248.54	0.143
248.91	0.377
249.27	-0.441
249.64	0.091
250.00	-0.111
250.36	-0.286
250.73	-0.058
251.09	0.322
251.46	-0.345
251.82	-0.607
252.19	-1.071
252.55	-0.570
252.91	-0.900
253.28	0.117
253.64	0.660
254.01	0.484
254.37	0.528
254.73	0.103
255.10	0.569
255.46	1.523
255.83	1.347
256.19	1.230
256.55	1.090
256.92	1.219
257.28	1.101
257.65	0.771
258.01	1.117
258.37	1.059
258.74	0.938
259.10	0.705
259.46	0.501
259.83	0.650
260.19	0.828
260.55	0.944
260.92	0.871
261.28	0.794
261.64	0.806
262.01	0.879
262.37	1.171
262.73	1.672
263.10	1.339
263.46	1.263
263.82	1.148
264.19	1.525
264.55	1.740
264.91	2.123
265.28	2.020
265.64	1.490
266.00	0.818
266.37	0.771
266.73	0.738
267.09	1.362
267.46	1.614
267.82	1.411
268.18	1.171
268.54	0.647
268.91	0.018
269.27	0.053
269.63	0.424
270.00	0.925
270.36	0.920
270.72	0.555
271.08	0.487
271.45	0.241
271.81	0.164
272.17	-0.025
272.53	0.269
272.90	0.645
273.26	0.713
273.62	0.759
273.98	0.252
274.35	0.181
274.71	0.486
275.07	0.299
275.43	0.527
275.80	0.692
276.16	0.737
276.52	0.463
276.88	0.360
277.25	0.537
277.61	0.352
277.97	0.366
278.33	0.202
278.69	0.232
279.06	-0.102
279.42	-0.405
279.78	-0.574
280.14	-0.402
280.50	-0.545
280.87	-0.286
281.23	-0.190
281.59	0.017
281.95	0.338
282.31	0.459
282.68	0.286
283.04	0.546
283.40	0.487
283.76	0.479
284.12	0.375
284.48	0.497
284.85	0.267
285.21	0.014
285.57	-0.122
285.93	-0.017
286.29	-0.081
286.65	0.014
287.02	-0.186
287.38	-0.153
287.74	-0.083
288.10	0.046
288.46	0.238
288.82	0.406
289.18	0.386
289.54	0.181
289.91	-0.157
290.27	-0.248
290.63	-0.461
290.99	-0.043
291.35	0.013
291.71	-0.113
292.07	-0.126
292.43	-0.464
292.79	-0.459
293.16	-0.522
293.52	-0.308
293.88	-0.048
294.24	-0.129
294.60	-0.055
294.96	-0.422
295.32	-0.345
295.68	-0.242
296.04	-0.432
296.40	-0.264
296.76	-0.324
297.12	-0.435
297.49	-0.411
297.85	-0.501
298.21	-0.319
298.57	-0.290
298.93	-0.225
299.29	-0.308
299.65	-0.378
300.01	-0.236
300.37	-0.165
300.73	-0.217
301.09	-0.203
301.45	-0.321
301.81	-0.385
302.17	-0.519
302.53	-0.455
302.89	-0.446
303.25	-0.459
303.61	-0.366
303.97	-0.577
304.33	-0.822
304.69	-0.729
305.05	-0.616
305.41	-0.516
305.77	-0.430
306.13	-0.384
306.49	-0.569
306.85	-0.485
307.21	-0.350
307.57	-0.456
307.93	-0.298
308.29	-0.139
308.65	-0.298
309.01	-0.290
309.37	-0.287
309.73	-0.380
310.09	-0.554
310.45	-0.468
310.81	-0.562
311.17	-0.758
311.53	-0.798
311.89	-0.868
312.25	-0.905
312.61	-0.918
312.96	-1.023
313.32	-1.290
313.68	-1.450
314.04	-1.330
314.40	-1.607
314.76	-1.582
315.12	-1.579
315.48	-1.644
315.84	-1.753
316.20	-1.856
316.56	-1.840
316.92	-1.801
317.27	-1.803
317.63	-1.710
317.99	-1.830
318.35	-1.554
318.71	-1.758
319.07	-1.746
319.43	-1.827
319.79	-1.795
320.15	-2.068
320.50	-2.184
320.86	-2.304
321.22	-2.375
321.58	-2.482
321.94	-2.410
322.30	-2.403
322.66	-2.215
323.01	-2.372
323.37	-2.263
323.73	-2.450
324.09	-2.313
324.45	-2.488
324.81	-2.433
325.17	-2.352
325.52	-2.284
325.88	-2.485
326.24	-2.697
326.60	-2.947
326.96	-2.951
327.31	-3.099
327.67	-2.956
328.03	-3.005
328.39	-2.903
328.75	-3.016
329.11	-3.044
329.46	-3.164
329.82	-2.976
330.18	-2.878
330.54	-2.802
330.90	-2.652
331.25	-2.418
331.61	-2.290
331.97	-2.198
332.33	-2.046
332.68	-1.907
333.04	-1.820
333.40	-1.778
333.76	-1.707
334.11	-1.645
334.47	-1.542
334.83	-1.564
335.19	-1.608
335.54	-1.730
335.90	-1.717
336.26	-1.681
336.62	-1.823
336.97	-1.944
337.33	-1.927
337.69	-2.042
338.05	-2.065
338.40	-2.102
338.76	-2.152
339.12	-2.182
339.48	-2.036
339.83	-1.983
340.19	-1.939
340.55	-1.756
340.90	-1.687
341.26	-1.550
341.62	-1.438
341.97	-1.454
342.33	-1.302
342.69	-1.217
343.04	-1.271
343.40	-1.365
343.76	-1.314
344.12	-1.371
344.47	-1.352
344.83	-1.249
345.19	-1.302
345.54	-1.289
345.90	-1.268
346.26	-1.310
346.61	-1.272
346.97	-1.113
347.32	-1.050
347.68	-1.107
348.04	-1.213
348.39	-1.169
348.75	-1.244
349.11	-1.314
349.46	-1.391
349.82	-1.480
350.18	-1.504
350.53	-1.579
350.89	-1.749
351.24	-1.734
351.60	-1.802
351.96	-1.669
352.31	-1.704
352.67	-1.607
353.02	-1.453
353.38	-1.313
353.74	-1.175
354.09	-1.075
354.45	-0.973
354.80	-0.851
355.16	-0.862
355.52	-0.670
355.87	-0.599
356.23	-0.539
356.58	-0.547
356.94	-0.563
357.29	-0.566
357.65	-0.495
358.00	-0.546
358.36	-0.523
358.72	-0.539
359.07	-0.486
359.43	-0.523
359.78	-0.502
360.14	-0.616
360.49	-0.687
360.85	-0.719
361.20	-0.812
361.56	-0.932
361.91	-0.948
362.27	-1.024
362.62	-1.027
362.98	-1.107
363.33	-1.147
363.69	-1.220
364.04	-1.215
364.40	-1.322
364.75	-1.311
365.11	-1.267
365.46	-1.245
365.82	-1.332
366.17	-1.369
366.53	-1.381
366.88	-1.336
367.24	-1.301
367.59	-1.236
367.95	-1.198
368.30	-1.013
368.66	-0.993
369.01	-0.914
369.37	-0.752
369.72	-0.590
370.08	-0.366
370.43	-0.302
370.78	-0.211
371.14	-0.132
371.49	-0.143
371.85	-0.087
372.20	-0.101
372.56	-0.100
372.91	-0.208
373.26	-0.347
373.62	-0.464
373.97	-0.597
374.33	-0.571
374.68	-0.645
375.03	-0.703
375.39	-0.728
375.74	-0.754
376.10	-0.687
376.45	-0.561
376.80	-0.476
377.16	-0.303
377.51	-0.108
377.87	0.024
378.22	0.125
378.57	0.286
378.93	0.363
379.28	0.587
379.63	0.820
379.99	0.979
380.34	1.095
380.70	1.316
381.05	1.440
381.40	1.514
381.76	1.583
382.11	1.635
382.46	1.724
382.82	1.798
383.17	1.789
383.52	1.790
383.88	1.802
384.23	1.748
384.58	1.676
384.94	1.649
385.29	1.604
385.64	1.608
385.99	1.602
386.35	1.562
386.70	1.539
387.05	1.492
387.41	1.488
387.76	1.495
388.11	1.569
388.47	1.667
388.82	1.702
389.17	1.851
389.52	1.935
389.88	2.063
390.23	2.219
390.58	2.426
390.93	2.629
391.29	2.747
391.64	2.841
391.99	2.920
392.34	2.946
392.70	2.953
393.05	2.933
393.40	2.936
393.75	2.899
394.11	2.784
394.46	2.610
394.81	2.437
395.16	2.304
395.52	2.160
395.87	1.930
396.22	1.712
396.57	1.530
396.92	1.259
397.28	1.037
397.63	0.802
397.98	0.568
398.33	0.348
398.68	0.223
399.04	0.112
399.39	-0.027
399.74	0.000
400.09	0.029
400.44	0.060
400.80	0.205
401.15	0.248
401.50	0.337
401.85	0.473
402.20	0.623
402.55	0.653
402.90	0.683
403.26	0.777
403.61	0.760
403.96	0.780
404.31	0.785
404.66	0.712
405.01	0.703
405.36	0.634
405.72	0.539
406.07	0.440
406.42	0.395
406.77	0.336
407.12	0.246
407.47	0.220
407.82	0.166
408.17	0.077
408.53	0.031
408.88	-0.040
409.23	-0.094
409.58	-0.122
409.93	-0.126
410.28	-0.176
410.63	-0.211
410.98	-0.215
411.33	-0.193
411.68	-0.166
412.03	-0.081
412.38	0.026
412.73	0.229
413.09	0.428
413.44	0.630
413.79	0.868
414.14	1.164
414.49	1.410
414.84	1.664
415.19	1.925
415.54	2.176
415.89	2.436
416.24	2.675
416.59	2.875
416.94	3.060
417.29	3.227
417.64	3.386
417.99	3.506
418.34	3.629
418.69	3.722
419.04	3.795
419.39	3.868
419.74	3.938
420.09	3.996
420.44	4.024
420.79	4.044
421.14	4.047
421.49	4.033
421.84	3.998
422.19	3.977
422.54	3.946
422.89	3.862
423.24	3.744
423.59	3.623
423.94	3.449
424.29	3.276
424.64	3.128
424.99	2.967
425.34	2.792
425.68	2.643
426.03	2.465
426.38	2.289
426.73	2.175
427.08	2.157
427.43	2.129
427.78	2.164
428.13	2.209
428.48	2.249
428.83	2.262
429.18	2.304
429.53	2.341
429.87	2.373
430.22	2.402
430.57	2.419
430.92	2.393
431.27	2.322
431.62	2.282
431.97	2.195
432.32	2.093
432.67	2.023
433.01	1.945
433.36	1.821
433.71	1.715
434.06	1.653
434.41	1.628
434.76	1.619
435.11	1.685
435.45	1.743
435.80	1.855
436.15	1.950
436.50	2.052
436.85	2.156
437.20	2.278
437.54	2.365
437.89	2.431
438.24	2.474
438.59	2.495
438.94	2.464
439.29	2.413
439.63	2.358
439.98	2.319
440.33	2.312
440.68	2.309
441.03	2.338
441.37	2.418
441.72	2.510
442.07	2.646
442.42	2.805
442.76	2.990
443.11	3.180
443.46	3.335
443.81	3.480
444.16	3.580
444.50	3.648
444.85	3.699
445.20	3.692
445.55	3.638
445.89	3.529
446.24	3.398
446.59	3.223
446.94	3.030
447.28	2.859
447.63	2.678
447.98	2.498
448.32	2.335
448.67	2.186
449.02	2.096
449.37	2.061
449.71	2.078
450.06	2.111
450.41	2.198
450.75	2.260
451.10	2.312
451.45	2.349
451.79	2.400
452.14	2.444
452.49	2.438
452.84	2.405
453.18	2.416
453.53	2.430
453.88	2.469
454.22	2.524
454.57	2.660
454.92	2.825
455.26	3.026
455.61	3.209
455.95	3.397
456.30	3.599
456.65	3.813
456.99	3.975
457.34	4.120
457.69	4.208
458.03	4.268
458.38	4.263
458.73	4.200
459.07	4.080
459.42	3.932
459.76	3.760
460.11	3.567
460.46	3.357
460.80	3.069
461.15	2.787
461.49	2.566
461.84	2.375
462.19	2.209
462.53	2.135
462.88	2.100
463.22	2.121
463.57	2.159
463.91	2.184
464.26	2.217
464.61	2.334
464.95	2.414
465.30	2.479
465.64	2.492
465.99	2.471
466.33	2.410
466.68	2.337
467.02	2.261
467.37	2.160
467.71	2.078
468.06	1.997
468.41	1.897
468.75	1.801
469.10	1.627
469.44	1.459
469.79	1.367
470.13	1.271
470.48	1.180
470.82	1.086
471.17	1.017
471.51	0.917
471.86	0.825
472.20	0.730
472.55	0.643
472.89	0.623
473.23	0.616
473.58	0.570
473.92	0.559
474.27	0.568
474.61	0.562
474.96	0.564
475.30	0.576
475.65	0.606
475.99	0.639
476.34	0.658
476.68	0.703
477.02	0.760
477.37	0.875
477.71	1.036
478.06	1.311
478.40	1.765
478.75	2.361
479.09	2.976
479.43	3.553
479.78	4.081
480.12	4.569
480.47	5.010
480.81	5.407
481.15	5.761
481.50	6.077
481.84	6.357
482.19	6.606
482.53	6.762
482.87	6.844
483.22	6.819
483.56	6.720
483.90	6.583
484.25	6.439
484.59	6.297
484.94	6.133
485.28	5.944
485.62	5.731
485.97	5.480
486.31	5.253
486.65	5.075
487.00	4.969
487.34	4.909
487.68	4.875
488.03	4.813
488.37	4.722
488.71	4.642
489.06	4.572
489.40	4.491
489.74	4.406
490.09	4.317
490.43	4.194
490.77	4.029
491.11	3.855
491.46	3.648
491.80	3.432
492.14	3.245
492.49	3.006
492.83	2.766
493.17	2.532
493.51	2.305
493.86	2.109
494.20	1.970
494.54	1.929
494.88	1.950
495.23	2.030
495.57	2.113
495.91	2.153
496.25	2.214
496.60	2.264
496.94	2.279
497.28	2.293
497.62	2.285
497.97	2.262
498.31	2.244
498.65	2.225
498.99	2.193
499.33	2.183
499.68	2.185
500.02	2.211
500.36	2.209
500.70	2.236
501.04	2.267
501.39	2.323
501.73	2.387
502.07	2.454
502.41	2.530
502.75	2.577
503.09	2.646
503.44	2.741
503.78	2.794
504.12	2.900
504.46	3.024
504.80	3.136
505.14	3.247
505.49	3.385
505.83	3.502
506.17	3.602
506.51	3.713
506.85	3.807
507.19	3.894
507.53	4.010
507.87	4.079
508.22	4.121
508.56	4.148
508.90	4.174
509.24	4.149
509.58	4.155
509.92	4.151
510.26	4.154
510.60	4.133
510.94	4.097
511.28	4.054
511.63	4.036
511.97	4.063
512.31	4.101
512.65	4.166
512.99	4.277
513.33	4.394
513.67	4.559
514.01	4.729
514.35	4.926
514.69	5.137
515.03	5.357
515.37	5.560
515.71	5.711
516.05	5.839
516.39	5.913
516.73	5.968
517.07	5.991
517.41	5.961
517.75	5.902
518.09	5.792
518.43	5.654
518.77	5.486
519.11	5.296
519.45	5.107
519.79	4.928
520.13	4.807
520.47	4.706
520.81	4.663
521.15	4.662
521.49	4.687
521.83	4.802
522.17	4.955
522.51	5.140
522.85	5.381
523.19	5.741
523.53	6.161
523.87	6.564
524.21	6.948
524.55	7.276
524.89	7.581
525.23	7.860
525.57	8.089
525.91	8.286
526.25	8.458
526.58	8.597
526.92	8.661
527.26	8.687
527.60	8.651
527.94	8.594
528.28	8.511
528.62	8.389
528.96	8.264
529.30	8.107
529.64	7.945
529.97	7.768
530.31	7.578
530.65	7.421
530.99	7.268
531.33	7.158
531.67	7.055
532.01	6.984
532.35	6.903
532.68	6.798
533.02	6.693
533.36	6.562
533.70	6.436
534.04	6.330
534.38	6.181
534.71	6.031
535.05	5.881
535.39	5.740
535.73	5.602
536.07	5.551
536.41	5.589
536.74	5.681
537.08	5.811
537.42	5.964
537.76	6.117
538.10	6.320
538.43	6.514
538.77	6.705
539.11	6.867
539.45	7.009
539.79	7.103
540.12	7.145
540.46	7.156
540.80	7.134
541.14	7.079
541.47	6.986
541.81	6.844
542.15	6.677
542.49	6.492
542.82	6.295
543.16	6.097
543.50	5.883
543.84	5.677
544.17	5.512
544.51	5.363
544.85	5.223
545.18	5.088
545.52	4.939
545.86	4.781
546.20	4.607
546.53	4.429
546.87	4.231
547.21	4.052
547.54	3.899
547.88	3.732
548.22	3.608
548.55	3.508
548.89	3.481
549.23	3.451
549.56	3.486
549.90	3.522
550.24	3.569
550.57	3.609
550.91	3.679
551.25	3.704
551.58	3.740
551.92	3.746
552.26	3.745
552.59	3.691
552.93	3.658
553.27	3.578
553.60	3.549
553.94	3.529
554.27	3.510
554.61	3.464
554.95	3.482
555.28	3.463
555.62	3.508
555.95	3.544
556.29	3.616
556.63	3.731
556.96	3.803
557.30	3.878
557.63	3.936
557.97	4.019
558.31	4.131
558.64	4.190
558.98	4.263
559.31	4.299
559.65	4.369
559.98	4.443
560.32	4.484
560.65	4.623
560.99	4.735
561.33	4.884
561.66	5.010
562.00	5.122
562.33	5.268
562.67	5.435
563.00	5.605
563.34	5.789
563.67	5.970
564.01	6.136
564.34	6.250
564.68	6.367
565.01	6.433
565.35	6.514
565.68	6.620
566.02	6.714
566.35	6.797
566.69	6.874
567.02	6.959
567.36	7.025
567.69	7.159
568.03	7.275
568.36	7.405
568.69	7.526
569.03	7.663
569.36	7.798
569.70	7.932
570.03	8.048
570.37	8.191
570.70	8.280
571.04	8.389
571.37	8.444
571.70	8.518
572.04	8.584
572.37	8.700
572.71	8.768
573.04	8.828
573.37	8.870
573.71	8.932
574.04	8.955
574.38	9.011
574.71	9.009
575.04	9.032
575.38	9.103
575.71	9.123
576.05	9.108
576.38	9.111
576.71	9.110
577.05	9.096
577.38	9.122
577.71	9.114
578.05	9.117
578.38	9.160
578.71	9.206
579.05	9.205
579.38	9.274
579.71	9.354
580.05	9.455
580.38	9.540
580.71	9.667
581.05	9.774
581.38	9.898
581.71	10.030
582.05	10.178
582.38	10.326
582.71	10.466
583.04	10.609
583.38	10.773
583.71	10.950
584.04	11.114
584.38	11.292
584.71	11.480
585.04	11.721
585.37	11.923
585.71	12.173
586.04	12.389
586.37	12.626
586.70	12.868
587.04	13.069
587.37	13.202
587.70	13.367
588.03	13.535
588.37	13.673
588.70	13.751
589.03	13.848
589.36	13.951
589.69	14.043
590.03	14.093
590.36	14.113
590.69	14.199
591.02	14.333
591.35	14.453
591.69	14.582
592.02	14.747
592.35	14.971
592.68	15.143
593.01	15.311
593.35	15.493
593.68	15.687
594.01	15.880
594.34	16.057
594.67	16.207
595.00	16.396
595.34	16.548
595.67	16.633
596.00	16.692
596.33	16.757
596.66	16.791
596.99	16.789
597.32	16.804
597.65	16.844
597.99	16.826
598.32	16.831
598.65	16.849
598.98	16.892
599.31	16.971
599.64	17.061
599.97	17.161
600.30	17.296
600.63	17.468
600.96	17.657
601.30	17.765
601.63	17.907
601.96	18.046
602.29	18.120
602.62	18.202
602.95	18.290
603.28	18.342
603.61	18.418
603.94	18.409
604.27	18.383
604.60	18.352
604.93	18.385
605.26	18.374
605.59	18.359
605.92	18.330
606.25	18.357
606.58	18.360
606.91	18.406
607.24	18.431
607.57	18.496
607.90	18.538
608.23	18.540
608.56	18.500
608.89	18.486
609.22	18.470
609.55	18.451
609.88	18.364
610.21	18.281
610.54	18.176
610.87	18.045
611.20	17.963
611.53	17.840
611.86	17.779
612.19	17.722
612.52	17.643
612.85	17.609
613.18	17.590
613.51	17.524
613.84	17.511
614.17	17.520
614.49	17.511
614.82	17.469
615.15	17.473
615.48	17.358
615.81	17.316
616.14	17.313
616.47	17.274
616.80	17.235
617.13	17.231
617.46	17.147
617.78	17.043
618.11	16.977
618.44	16.900
618.77	16.891
619.10	16.914
619.43	16.874
619.76	16.841
620.09	16.799
620.41	16.764
620.74	16.754
621.07	16.737
621.40	16.826
621.73	16.937
622.06	17.030
622.38	17.079
622.71	17.161
623.04	17.286
623.37	17.393
623.70	17.487
624.02	17.599
624.35	17.677
624.68	17.836
625.01	17.878
625.34	17.884
625.66	17.916
625.99	17.950
626.32	17.955
626.65	17.929
626.98	17.887
627.30	17.857
627.63	17.757
627.96	17.728
628.29	17.597
628.61	17.549
628.94	17.500
629.27	17.431
629.60	17.344
629.92	17.317
630.25	17.237
630.58	17.223
630.91	17.193
631.23	17.235
631.56	17.134
631.89	17.101
632.21	17.036
632.54	16.975
632.87	16.903
633.19	16.842
633.52	16.766
633.85	16.676
634.18	16.543
634.50	16.419
634.83	16.271
635.16	16.133
635.48	15.996
635.81	15.852
636.14	15.708
636.46	15.532
636.79	15.383
637.11	15.146
637.44	15.018
637.77	14.827
638.09	14.619
638.42	14.435
638.75	14.282
639.07	14.100
639.40	13.897
639.73	13.750
640.05	13.538
640.38	13.377
640.70	13.212
641.03	13.024
641.36	12.872
641.68	12.761
642.01	12.590
642.33	12.517
642.66	12.366
642.98	12.278
643.31	12.120
643.64	12.022
643.96	11.883
644.29	11.788
644.61	11.714
644.94	11.637
645.26	11.516
645.59	11.460
645.91	11.346
646.24	11.336
646.56	11.187
646.89	11.108
647.22	11.039
647.54	10.924
