OOIBase32 Version 2.0.0.6 Data File
++++++++++++++++++++++++++++++++++++
Date: 01-23-2012, 23:07:36
User: Valued Ocean Optics Customer
Spectrometer Serial Number: USB2E2917
Spectrometer Channel: Master
Integration Time (msec): 5
Spectra Averaged: 10
Boxcar Smoothing: 5
Correct for Electrical Dark: Enabled
Time Normalized: Disabled
Dual-beam Reference: Disabled
Reference Channel: Master
Temperature: Not acquired
Spectrometer Type: S2000
ADC Type: USB2000
Number of Pixels in File: 2048
Graph Title: 
>>>>>Begin Spectral Data<<<<<
180.30	0.000
180.67	0.000
181.03	-17.386
181.40	453.419
181.77	-1237.003
182.14	147.739
182.51	433.315
182.88	8.843
183.25	64.366
183.62	-10.799
183.99	-15.626
184.36	-16.690
184.73	313.677
185.10	128.730
185.46	-513.891
185.83	164.095
186.20	914.661
186.57	75.506
186.94	79.335
187.31	73.794
187.68	115.009
188.05	93.371
188.42	133.147
188.78	274.307
189.15	875.345
189.52	-138.549
189.89	-3.668
190.26	12.717
190.63	17.668
191.00	19.377
191.37	32.037
191.73	43.800
192.10	35.557
192.47	34.115
192.84	32.793
193.21	34.584
193.58	27.695
193.94	8.738
194.31	5.852
194.68	3.177
195.05	-9.696
195.42	-23.189
195.79	-44.992
196.15	-50.503
196.52	-69.544
196.89	-57.266
197.26	-54.077
197.63	-43.366
198.00	-11.894
198.36	1.943
198.73	-17.900
199.10	-19.248
199.47	-15.372
199.84	-9.141
200.20	-8.881
200.57	-7.354
200.94	-20.749
201.31	-17.279
201.68	-29.981
202.04	-37.060
202.41	-56.329
202.78	-65.702
203.15	-64.396
203.51	-66.558
203.88	-70.113
204.25	-50.474
204.62	-58.355
204.98	-49.432
205.35	-67.824
205.72	-59.230
206.09	-35.256
206.46	-54.938
206.82	-30.097
207.19	-29.669
207.56	-32.431
207.92	-10.955
208.29	-38.694
208.66	6.246
209.03	-2.074
209.39	26.400
209.76	19.970
210.13	-12.965
210.50	16.796
210.86	34.868
211.23	28.380
211.60	21.959
211.96	20.506
212.33	33.486
212.70	11.537
213.07	12.188
213.43	-21.671
213.80	-22.264
214.17	6.489
214.53	10.833
214.90	-2.303
215.27	5.128
215.63	2.829
216.00	2.643
216.37	-1.179
216.74	-7.831
217.10	-2.156
217.47	4.706
217.84	10.947
218.20	0.746
218.57	-0.848
218.94	6.646
219.30	6.433
219.67	12.140
220.04	9.562
220.40	6.249
220.77	8.162
221.13	7.208
221.50	8.606
221.87	4.943
222.23	4.194
222.60	-9.212
222.97	-15.812
223.33	-13.435
223.70	-15.926
224.07	-13.350
224.43	-11.502
224.80	-9.216
225.16	-10.299
225.53	-10.131
225.90	-9.739
226.26	-7.039
226.63	-4.411
226.99	-2.798
227.36	-2.318
227.73	-2.535
228.09	-3.797
228.46	-1.538
228.82	-0.563
229.19	0.383
229.56	1.335
229.92	3.367
230.29	4.016
230.65	4.692
231.02	4.899
231.38	1.047
231.75	2.032
232.12	1.389
232.48	-2.281
232.85	-3.223
233.21	-4.899
233.58	-8.382
233.94	-9.132
234.31	-9.230
234.68	-8.002
235.04	-8.828
235.41	-3.969
235.77	-2.677
236.14	-2.103
236.50	-0.246
236.87	0.343
237.23	2.222
237.60	2.430
237.96	1.884
238.33	0.391
238.69	-1.013
239.06	-1.075
239.42	-1.474
239.79	-2.178
240.15	-2.236
240.52	-2.270
240.88	-2.384
241.25	-2.836
241.61	-2.323
241.98	-2.596
242.34	-2.499
242.71	-1.955
243.07	-1.061
243.44	-1.229
243.80	-1.014
244.17	-1.004
244.53	-1.432
244.90	-1.511
245.26	-1.381
245.63	-1.574
245.99	-1.699
246.36	-1.749
246.72	-1.681
247.09	-2.116
247.45	-1.966
247.81	-1.800
248.18	-1.867
248.54	-1.626
248.91	-1.851
249.27	-1.801
249.64	-1.272
250.00	-0.382
250.36	-0.183
250.73	-0.524
251.09	-0.446
251.46	-0.664
251.82	-0.691
252.19	-0.225
252.55	-0.415
252.91	0.180
253.28	0.071
253.64	-0.133
254.01	-0.497
254.37	-0.050
254.73	0.453
255.10	0.631
255.46	0.851
255.83	0.671
256.19	0.399
256.55	0.337
256.92	0.458
257.28	0.471
257.65	0.645
258.01	0.698
258.37	0.491
258.74	0.218
259.10	-0.092
259.46	-0.306
259.83	-0.347
260.19	-0.327
260.55	-0.277
260.92	-0.461
261.28	-0.792
261.64	-1.130
262.01	-1.346
262.37	-1.224
262.73	-0.985
263.10	-0.694
263.46	-0.603
263.82	-0.599
264.19	-0.816
264.55	-0.959
264.91	-1.313
265.28	-1.161
265.64	-0.921
266.00	-0.828
266.37	-0.957
266.73	-1.164
267.09	-1.231
267.46	-1.344
267.82	-1.440
268.18	-1.119
268.54	-0.830
268.91	-0.711
269.27	-0.575
269.63	-0.571
270.00	-0.516
270.36	-0.577
270.72	-0.364
271.08	-0.484
271.45	-0.451
271.81	-0.401
272.17	-0.649
272.53	-0.676
272.90	-0.520
273.26	-0.488
273.62	-0.805
273.98	-0.968
274.35	-0.760
274.71	-0.803
275.07	-0.671
275.43	-0.750
275.80	-0.741
276.16	-0.685
276.52	-0.684
276.88	-0.806
277.25	-0.906
277.61	-1.018
277.97	-1.288
278.33	-1.510
278.69	-1.508
279.06	-1.408
279.42	-1.350
279.78	-1.273
280.14	-1.065
280.50	-1.013
280.87	-0.775
281.23	-0.709
281.59	-0.454
281.95	-0.143
282.31	0.174
282.68	0.072
283.04	-0.100
283.40	0.086
283.76	0.116
284.12	0.125
284.48	0.171
284.85	0.041
285.21	-0.019
285.57	-0.132
285.93	-0.258
286.29	-0.540
286.65	-0.503
287.02	-0.135
287.38	-0.206
287.74	-0.206
288.10	-0.306
288.46	-0.446
288.82	-0.347
289.18	-0.224
289.54	-0.102
289.91	0.027
290.27	0.256
290.63	0.392
290.99	0.394
291.35	0.426
291.71	0.527
292.07	0.487
292.43	0.431
292.79	0.217
293.16	-0.055
293.52	0.068
293.88	0.048
294.24	-0.106
294.60	-0.167
294.96	-0.361
295.32	-0.286
295.68	-0.360
296.04	-0.278
296.40	-0.167
296.76	-0.053
297.12	0.029
297.49	-0.135
297.85	-0.143
298.21	-0.078
298.57	-0.303
298.93	-0.285
299.29	-0.359
299.65	-0.339
300.01	-0.315
300.37	-0.245
300.73	-0.194
301.09	-0.123
301.45	-0.008
301.81	0.085
302.17	0.062
302.53	0.161
302.89	0.162
303.25	0.191
303.61	0.123
303.97	-0.072
304.33	-0.123
304.69	-0.094
305.05	-0.136
305.41	-0.248
305.77	-0.339
306.13	-0.355
306.49	-0.282
306.85	-0.235
307.21	-0.339
307.57	-0.247
307.93	-0.125
308.29	-0.063
308.65	-0.084
309.01	-0.083
309.37	-0.006
309.73	0.050
310.09	0.243
310.45	0.322
310.81	0.286
311.17	0.347
311.53	0.306
311.89	0.369
312.25	0.316
312.61	0.295
312.96	0.394
313.32	0.371
313.68	0.211
314.04	-0.015
314.40	-0.072
314.76	-0.060
315.12	-0.123
315.48	-0.060
315.84	-0.039
316.20	-0.118
316.56	-0.181
316.92	-0.240
317.27	-0.244
317.63	-0.180
317.99	-0.229
318.35	-0.236
318.71	-0.164
319.07	-0.002
319.43	-0.025
319.79	-0.014
320.15	-0.019
320.50	0.095
320.86	0.101
321.22	0.104
321.58	0.105
321.94	0.153
322.30	0.079
322.66	0.066
323.01	-0.116
323.37	-0.176
323.73	-0.239
324.09	-0.292
324.45	-0.375
324.81	-0.517
325.17	-0.493
325.52	-0.461
325.88	-0.503
326.24	-0.494
326.60	-0.627
326.96	-0.539
327.31	-0.594
327.67	-0.644
328.03	-0.632
328.39	-0.644
328.75	-0.498
329.11	-0.418
329.46	-0.404
329.82	-0.314
330.18	-0.316
330.54	-0.295
330.90	-0.327
331.25	-0.295
331.61	-0.241
331.97	-0.138
332.33	-0.096
332.68	-0.131
333.04	-0.217
333.40	-0.285
333.76	-0.320
334.11	-0.290
334.47	-0.286
334.83	-0.333
335.19	-0.362
335.54	-0.352
335.90	-0.406
336.26	-0.345
336.62	-0.324
336.97	-0.347
337.33	-0.404
337.69	-0.430
338.05	-0.551
338.40	-0.554
338.76	-0.485
339.12	-0.411
339.48	-0.530
339.83	-0.534
340.19	-0.588
340.55	-0.512
340.90	-0.531
341.26	-0.455
341.62	-0.400
341.97	-0.273
342.33	-0.278
342.69	-0.326
343.04	-0.314
343.40	-0.294
343.76	-0.331
344.12	-0.339
344.47	-0.359
344.83	-0.307
345.19	-0.294
345.54	-0.309
345.90	-0.319
346.26	-0.303
346.61	-0.265
346.97	-0.262
347.32	-0.236
347.68	-0.164
348.04	-0.170
348.39	-0.242
348.75	-0.210
349.11	-0.202
349.46	-0.223
349.82	-0.252
350.18	-0.257
350.53	-0.254
350.89	-0.317
351.24	-0.323
351.60	-0.288
351.96	-0.251
352.31	-0.241
352.67	-0.236
353.02	-0.216
353.38	-0.221
353.74	-0.160
354.09	-0.152
354.45	-0.083
354.80	-0.040
355.16	0.019
355.52	-0.036
355.87	-0.092
356.23	-0.057
356.58	-0.019
356.94	-0.013
357.29	0.072
357.65	0.087
358.00	0.133
358.36	0.131
358.72	0.160
359.07	0.173
359.43	0.239
359.78	0.303
360.14	0.298
360.49	0.252
360.85	0.248
361.20	0.235
361.56	0.198
361.91	0.209
362.27	0.206
362.62	0.228
362.98	0.215
363.33	0.186
363.69	0.179
364.04	0.223
364.40	0.206
364.75	0.227
365.11	0.204
365.46	0.211
365.82	0.221
366.17	0.172
366.53	0.172
366.88	0.188
367.24	0.193
367.59	0.189
367.95	0.207
368.30	0.231
368.66	0.218
369.01	0.206
369.37	0.254
369.72	0.261
370.08	0.317
370.43	0.294
370.78	0.252
371.14	0.226
371.49	0.292
371.85	0.287
372.20	0.292
372.56	0.322
372.91	0.369
373.26	0.356
373.62	0.315
373.97	0.352
374.33	0.357
374.68	0.378
375.03	0.441
375.39	0.360
375.74	0.317
376.10	0.320
376.45	0.340
376.80	0.347
377.16	0.347
377.51	0.393
377.87	0.357
378.22	0.335
378.57	0.347
378.93	0.324
379.28	0.411
379.63	0.436
379.99	0.471
380.34	0.459
380.70	0.470
381.05	0.526
381.40	0.531
381.76	0.563
382.11	0.585
382.46	0.646
382.82	0.656
383.17	0.583
383.52	0.578
383.88	0.555
384.23	0.548
384.58	0.512
384.94	0.462
385.29	0.473
385.64	0.482
385.99	0.523
386.35	0.519
386.70	0.527
387.05	0.514
387.41	0.540
387.76	0.506
388.11	0.494
388.47	0.512
388.82	0.536
389.17	0.515
389.52	0.501
389.88	0.502
390.23	0.479
390.58	0.485
390.93	0.525
391.29	0.517
391.64	0.575
391.99	0.621
392.34	0.630
392.70	0.615
393.05	0.627
393.40	0.630
393.75	0.602
394.11	0.597
394.46	0.540
394.81	0.540
395.16	0.494
395.52	0.462
395.87	0.434
396.22	0.425
396.57	0.396
396.92	0.342
397.28	0.331
397.63	0.316
397.98	0.312
398.33	0.351
398.68	0.323
399.04	0.332
399.39	0.315
399.74	0.277
400.09	0.258
400.44	0.279
400.80	0.291
401.15	0.254
401.50	0.232
401.85	0.236
402.20	0.201
402.55	0.228
402.90	0.208
403.26	0.204
403.61	0.213
403.96	0.212
404.31	0.185
404.66	0.191
405.01	0.188
405.36	0.195
405.72	0.173
406.07	0.197
406.42	0.135
406.77	0.155
407.12	0.151
407.47	0.141
407.82	0.132
408.17	0.145
408.53	0.104
408.88	0.084
409.23	0.060
409.58	0.028
409.93	0.018
410.28	0.043
410.63	0.015
410.98	0.006
411.33	0.026
411.68	0.027
412.03	0.035
412.38	0.054
412.73	0.100
413.09	0.134
413.44	0.166
413.79	0.185
414.14	0.205
414.49	0.257
414.84	0.297
415.19	0.318
415.54	0.357
415.89	0.373
416.24	0.429
416.59	0.444
416.94	0.478
417.29	0.509
417.64	0.503
417.99	0.522
418.34	0.522
418.69	0.535
419.04	0.542
419.39	0.544
419.74	0.551
420.09	0.554
420.44	0.563
420.79	0.554
421.14	0.549
421.49	0.567
421.84	0.569
422.19	0.582
422.54	0.572
422.89	0.565
423.24	0.561
423.59	0.551
423.94	0.522
424.29	0.505
424.64	0.498
424.99	0.478
425.34	0.453
425.68	0.427
426.03	0.389
426.38	0.380
426.73	0.367
427.08	0.335
427.43	0.339
427.78	0.369
428.13	0.365
428.48	0.370
428.83	0.379
429.18	0.390
429.53	0.402
429.87	0.409
430.22	0.396
430.57	0.425
430.92	0.437
431.27	0.429
431.62	0.398
431.97	0.401
432.32	0.380
432.67	0.373
433.01	0.357
433.36	0.346
433.71	0.344
434.06	0.335
434.41	0.285
434.76	0.286
435.11	0.292
435.45	0.305
435.80	0.306
436.15	0.317
436.50	0.325
436.85	0.347
437.20	0.343
437.54	0.337
437.89	0.356
438.24	0.380
438.59	0.374
438.94	0.362
439.29	0.335
439.63	0.338
439.98	0.330
440.33	0.310
440.68	0.302
441.03	0.309
441.37	0.335
441.72	0.332
442.07	0.322
442.42	0.327
442.76	0.349
443.11	0.373
443.46	0.389
443.81	0.401
444.16	0.434
444.50	0.434
444.85	0.429
445.20	0.405
445.55	0.401
445.89	0.408
446.24	0.390
446.59	0.356
446.94	0.337
447.28	0.311
447.63	0.291
447.98	0.251
448.32	0.235
448.67	0.226
449.02	0.206
449.37	0.188
449.71	0.181
450.06	0.184
450.41	0.182
450.75	0.185
451.10	0.177
451.45	0.168
451.79	0.161
452.14	0.154
452.49	0.147
452.84	0.147
453.18	0.136
453.53	0.125
453.88	0.129
454.22	0.152
454.57	0.168
454.92	0.166
455.26	0.189
455.61	0.231
455.95	0.255
456.30	0.281
456.65	0.316
456.99	0.342
457.34	0.360
457.69	0.384
458.03	0.380
458.38	0.386
458.73	0.396
459.07	0.386
459.42	0.346
459.76	0.312
460.11	0.282
460.46	0.246
460.80	0.215
461.15	0.174
461.49	0.120
461.84	0.105
462.19	0.066
462.53	0.055
462.88	0.048
463.22	0.046
463.57	0.056
463.91	0.049
464.26	0.066
464.61	0.072
464.95	0.071
465.30	0.077
465.64	0.071
465.99	0.077
466.33	0.073
466.68	0.074
467.02	0.087
467.37	0.070
467.71	0.061
468.06	0.043
468.41	0.031
468.75	0.030
469.10	0.027
469.44	0.018
469.79	0.000
470.13	-0.047
470.48	-0.070
470.82	-0.095
471.17	-0.084
471.51	-0.103
471.86	-0.119
472.20	-0.128
472.55	-0.121
472.89	-0.131
473.23	-0.148
473.58	-0.134
473.92	-0.119
474.27	-0.121
474.61	-0.129
474.96	-0.128
475.30	-0.103
475.65	-0.109
475.99	-0.114
476.34	-0.126
476.68	-0.126
477.02	-0.108
477.37	-0.127
477.71	-0.092
478.06	-0.055
478.40	0.020
478.75	0.083
479.09	0.155
479.43	0.242
479.78	0.323
480.12	0.394
480.47	0.461
480.81	0.513
481.15	0.574
481.50	0.623
481.84	0.670
482.19	0.709
482.53	0.741
482.87	0.760
483.22	0.759
483.56	0.745
483.90	0.725
484.25	0.694
484.59	0.673
484.94	0.642
485.28	0.609
485.62	0.568
485.97	0.523
486.31	0.494
486.65	0.462
487.00	0.443
487.34	0.435
487.68	0.426
488.03	0.418
488.37	0.404
488.71	0.394
489.06	0.380
489.40	0.379
489.74	0.366
490.09	0.350
490.43	0.335
490.77	0.307
491.11	0.264
491.46	0.226
491.80	0.195
492.14	0.160
492.49	0.139
492.83	0.100
493.17	0.053
493.51	0.022
493.86	-0.018
494.20	-0.046
494.54	-0.061
494.88	-0.047
495.23	-0.037
495.57	-0.034
495.91	-0.017
496.25	-0.012
496.60	-0.003
496.94	0.003
497.28	-0.002
497.62	0.007
497.97	0.008
498.31	0.021
498.65	0.009
498.99	0.010
499.33	0.033
499.68	0.031
500.02	0.032
500.36	0.051
500.70	0.064
501.04	0.081
501.39	0.089
501.73	0.109
502.07	0.147
502.41	0.192
502.75	0.241
503.09	0.262
503.44	0.302
503.78	0.348
504.12	0.375
504.46	0.426
504.80	0.485
505.14	0.549
505.49	0.602
505.83	0.642
506.17	0.709
506.51	0.746
506.85	0.812
507.19	0.869
507.53	0.913
507.87	0.991
508.22	1.027
508.56	1.068
508.90	1.104
509.24	1.152
509.58	1.196
509.92	1.232
510.26	1.289
510.60	1.341
510.94	1.390
511.28	1.444
511.63	1.492
511.97	1.574
512.31	1.662
512.65	1.745
512.99	1.846
513.33	1.967
513.67	2.089
514.01	2.226
514.35	2.354
514.69	2.488
515.03	2.627
515.37	2.766
515.71	2.889
516.05	3.009
516.39	3.116
516.73	3.222
517.07	3.300
517.41	3.375
517.75	3.441
518.09	3.500
518.43	3.560
518.77	3.622
519.11	3.674
519.45	3.736
519.79	3.821
520.13	3.913
520.47	4.012
520.81	4.150
521.15	4.303
521.49	4.438
521.83	4.609
522.17	4.759
522.51	4.934
522.85	5.123
523.19	5.348
523.53	5.559
523.87	5.802
524.21	6.017
524.55	6.213
524.89	6.380
525.23	6.563
525.57	6.705
525.91	6.853
526.25	6.970
526.58	7.085
526.92	7.162
527.26	7.222
527.60	7.258
527.94	7.302
528.28	7.333
528.62	7.359
528.96	7.377
529.30	7.400
529.64	7.422
529.97	7.442
530.31	7.455
530.65	7.487
530.99	7.534
531.33	7.588
531.67	7.625
532.01	7.665
532.35	7.708
532.68	7.735
533.02	7.760
533.36	7.764
533.70	7.781
534.04	7.793
534.38	7.799
534.71	7.813
535.05	7.810
535.39	7.830
535.73	7.854
536.07	7.877
536.41	7.901
536.74	7.941
537.08	8.002
537.42	8.071
537.76	8.138
538.10	8.203
538.43	8.262
538.77	8.337
539.11	8.394
539.45	8.433
539.79	8.482
540.12	8.521
540.46	8.531
540.80	8.545
541.14	8.528
541.47	8.503
541.81	8.492
542.15	8.473
542.49	8.433
542.82	8.393
543.16	8.360
543.50	8.335
543.84	8.290
544.17	8.271
544.51	8.265
544.85	8.270
545.18	8.270
545.52	8.254
545.86	8.229
546.20	8.222
546.53	8.217
546.87	8.203
547.21	8.155
547.54	8.137
547.88	8.143
548.22	8.094
548.55	8.077
548.89	8.074
549.23	8.070
549.56	8.080
549.90	8.096
550.24	8.092
550.57	8.089
550.91	8.078
551.25	8.105
551.58	8.082
551.92	8.084
552.26	8.046
552.59	8.014
552.93	7.978
553.27	7.949
553.60	7.907
553.94	7.856
554.27	7.834
554.61	7.820
554.95	7.754
555.28	7.719
555.62	7.675
555.95	7.670
556.29	7.672
556.63	7.644
556.96	7.603
557.30	7.570
557.63	7.533
557.97	7.482
558.31	7.415
558.64	7.378
558.98	7.336
559.31	7.310
559.65	7.246
559.98	7.186
560.32	7.138
560.65	7.094
560.99	7.036
561.33	6.996
561.66	6.934
562.00	6.919
562.33	6.877
562.67	6.826
563.00	6.762
563.34	6.714
563.67	6.643
564.01	6.583
564.34	6.512
564.68	6.454
565.01	6.377
565.35	6.334
565.68	6.247
566.02	6.169
566.35	6.083
566.69	5.988
567.02	5.927
567.36	5.843
567.69	5.778
568.03	5.723
568.36	5.650
568.69	5.594
569.03	5.541
569.36	5.474
569.70	5.407
570.03	5.357
570.37	5.332
570.70	5.266
571.04	5.219
571.37	5.144
571.70	5.071
572.04	5.007
572.37	4.923
572.71	4.829
573.04	4.773
573.37	4.721
573.71	4.656
574.04	4.559
574.38	4.470
574.71	4.402
575.04	4.342
575.38	4.271
575.71	4.198
576.05	4.140
576.38	4.094
576.71	4.006
577.05	3.922
577.38	3.842
577.71	3.768
578.05	3.700
578.38	3.621
578.71	3.549
579.05	3.503
579.38	3.434
579.71	3.392
580.05	3.327
580.38	3.290
580.71	3.225
581.05	3.182
581.38	3.144
581.71	3.123
582.05	3.097
582.38	3.087
582.71	3.041
583.04	3.032
583.38	2.972
583.71	2.949
584.04	2.927
584.38	2.929
584.71	2.924
585.04	2.919
585.37	2.881
585.71	2.853
586.04	2.820
586.37	2.826
586.70	2.794
587.04	2.806
587.37	2.804
587.70	2.796
588.03	2.781
588.37	2.765
588.70	2.758
589.03	2.766
589.36	2.760
589.69	2.744
590.03	2.706
590.36	2.690
590.69	2.641
591.02	2.591
591.35	2.556
591.69	2.535
592.02	2.502
592.35	2.490
592.68	2.489
593.01	2.476
593.35	2.454
593.68	2.449
594.01	2.447
594.34	2.449
594.67	2.452
595.00	2.435
595.34	2.408
595.67	2.378
596.00	2.341
596.33	2.275
596.66	2.217
596.99	2.181
597.32	2.121
597.65	2.071
597.99	2.017
598.32	1.951
598.65	1.900
598.98	1.843
599.31	1.814
599.64	1.798
599.97	1.785
600.30	1.800
600.63	1.810
600.96	1.822
601.30	1.831
601.63	1.857
601.96	1.867
602.29	1.880
602.62	1.894
602.95	1.890
603.28	1.850
603.61	1.827
603.94	1.765
604.27	1.728
604.60	1.685
604.93	1.648
605.26	1.580
605.59	1.549
605.92	1.506
606.25	1.444
606.58	1.400
606.91	1.346
607.24	1.326
607.57	1.315
607.90	1.291
608.23	1.250
608.56	1.188
608.89	1.141
609.22	1.077
609.55	1.004
609.88	0.952
610.21	0.887
610.54	0.840
610.87	0.761
611.20	0.697
611.53	0.610
611.86	0.548
612.19	0.478
612.52	0.437
612.85	0.406
613.18	0.396
613.51	0.346
613.84	0.309
614.17	0.284
614.49	0.264
614.82	0.228
615.15	0.189
615.48	0.178
615.81	0.141
616.14	0.130
616.47	0.064
616.80	-0.010
617.13	-0.020
617.46	-0.046
617.78	-0.068
618.11	-0.093
618.44	-0.149
618.77	-0.170
619.10	-0.221
619.43	-0.215
619.76	-0.276
620.09	-0.258
620.41	-0.275
620.74	-0.284
621.07	-0.261
621.40	-0.279
621.73	-0.285
622.06	-0.237
622.38	-0.231
622.71	-0.210
623.04	-0.202
623.37	-0.138
623.70	-0.115
624.02	-0.067
624.35	-0.021
624.68	-0.024
625.01	0.022
625.34	0.051
625.66	0.058
625.99	0.089
626.32	0.109
626.65	0.118
626.98	0.096
627.30	0.069
627.63	0.033
627.96	-0.043
628.29	-0.080
628.61	-0.117
628.94	-0.155
629.27	-0.183
629.60	-0.251
629.92	-0.261
630.25	-0.306
630.58	-0.342
630.91	-0.377
631.23	-0.388
631.56	-0.378
631.89	-0.406
632.21	-0.432
632.54	-0.474
632.87	-0.519
633.19	-0.540
633.52	-0.618
633.85	-0.621
634.18	-0.659
634.50	-0.706
634.83	-0.741
635.16	-0.810
635.48	-0.862
635.81	-0.919
636.14	-0.966
636.46	-1.008
636.79	-1.038
637.11	-1.097
637.44	-1.197
637.77	-1.255
638.09	-1.318
638.42	-1.387
638.75	-1.435
639.07	-1.482
639.40	-1.529
639.73	-1.560
640.05	-1.601
640.38	-1.634
640.70	-1.668
641.03	-1.663
641.36	-1.705
641.68	-1.704
642.01	-1.721
642.33	-1.695
642.66	-1.691
642.98	-1.738
643.31	-1.781
643.64	-1.760
643.96	-1.789
644.29	-1.769
644.61	-1.754
644.94	-1.706
645.26	-1.666
645.59	-1.616
645.91	-1.637
646.24	-1.619
646.56	-1.582
646.89	-1.544
647.22	-1.570
647.54	-1.543
647.87	-1.515
648.19	-1.538
648.52	-1.544
648.84	-1.556
649.17	-1.601
649.49	-1.588
649.82	-1.590
