OOIBase32 Version 2.0.0.6 Data File
++++++++++++++++++++++++++++++++++++
Date: 01-23-2012, 23:08:00
User: Valued Ocean Optics Customer
Spectrometer Serial Number: USB2E2917
Spectrometer Channel: Master
Integration Time (msec): 5
Spectra Averaged: 10
Boxcar Smoothing: 5
Correct for Electrical Dark: Enabled
Time Normalized: Disabled
Dual-beam Reference: Disabled
Reference Channel: Master
Temperature: Not acquired
Spectrometer Type: S2000
ADC Type: USB2000
Number of Pixels in File: 2048
Graph Title: 
>>>>>Begin Spectral Data<<<<<
180.30	0.000
180.67	0.000
181.03	238.893
181.40	860.827
181.77	4971.101
182.14	6.950
182.51	-418.918
182.88	99.292
183.25	12.825
183.62	-12.661
183.99	245.687
184.36	-2.256
184.73	257.396
185.10	46.264
185.46	2.064
185.83	-115.657
186.20	1337.288
186.57	99.485
186.94	147.587
187.31	-26.079
187.68	53.703
188.05	-21.558
188.42	7.253
188.78	-1.152
189.15	460.131
189.52	-100.883
189.89	-15.413
190.26	-17.172
190.63	7.424
191.00	24.475
191.37	21.411
191.73	27.455
192.10	26.498
192.47	21.590
192.84	15.554
193.21	25.758
193.58	9.874
193.94	3.589
194.31	0.904
194.68	-5.907
195.05	-10.777
195.42	3.235
195.79	-6.460
196.15	2.279
196.52	-4.260
196.89	-6.319
197.26	-7.400
197.63	9.080
198.00	15.480
198.36	28.477
198.73	22.469
199.10	9.724
199.47	-4.716
199.84	-19.625
200.20	-22.193
200.57	1.976
200.94	13.271
201.31	16.333
201.68	6.315
202.04	11.149
202.41	11.244
202.78	6.305
203.15	13.668
203.51	4.374
203.88	7.389
204.25	-9.438
204.62	-24.879
204.98	-38.823
205.35	-56.946
205.72	-64.424
206.09	-63.378
206.46	-95.377
206.82	-73.353
207.19	-55.066
207.56	-62.574
207.92	-52.630
208.29	-69.542
208.66	-51.079
209.03	-58.252
209.39	-19.343
209.76	-6.930
210.13	-34.615
210.50	-25.386
210.86	-5.800
211.23	-38.240
211.60	-30.891
211.96	-26.465
212.33	-3.744
212.70	-10.435
213.07	-7.795
213.43	-43.928
213.80	-54.172
214.17	-17.125
214.53	-12.701
214.90	-17.405
215.27	-7.267
215.63	-4.355
216.00	-12.754
216.37	-25.080
216.74	-35.840
217.10	-25.872
217.47	-13.930
217.84	-9.046
218.20	-13.781
218.57	-15.137
218.94	-13.823
219.30	-18.804
219.67	-29.917
220.04	-19.017
220.40	-7.764
220.77	-2.089
221.13	1.910
221.50	1.167
221.87	5.124
222.23	2.591
222.60	-3.330
222.97	-9.693
223.33	-9.338
223.70	-3.692
224.07	-4.217
224.43	-6.303
224.80	-4.724
225.16	-8.621
225.53	-8.212
225.90	-9.427
226.26	-6.751
226.63	-2.625
226.99	0.213
227.36	1.102
227.73	3.535
228.09	2.010
228.46	3.767
228.82	4.740
229.19	5.454
229.56	5.639
229.92	6.292
230.29	5.765
230.65	3.669
231.02	0.498
231.38	-2.909
231.75	-6.683
232.12	-6.154
232.48	-8.958
232.85	-8.838
233.21	-8.219
233.58	-9.740
233.94	-8.697
234.31	-8.686
234.68	-7.671
235.04	-5.279
235.41	-2.668
235.77	-1.778
236.14	-1.180
236.50	0.466
236.87	-1.150
237.23	-0.050
237.60	-0.037
237.96	-0.531
238.33	-0.769
238.69	-0.899
239.06	-0.438
239.42	-0.107
239.79	-0.784
240.15	-0.746
240.52	-0.895
240.88	-0.240
241.25	-0.807
241.61	-0.214
241.98	-0.776
242.34	-0.883
242.71	-0.428
243.07	-0.534
243.44	-0.717
243.80	-0.370
244.17	-0.222
244.53	-0.577
244.90	-0.309
245.26	0.079
245.63	-0.009
245.99	0.423
246.36	0.511
246.72	0.455
247.09	0.246
247.45	0.667
247.81	1.099
248.18	1.362
248.54	1.897
248.91	1.458
249.27	1.259
249.64	1.557
250.00	1.786
250.36	1.438
250.73	1.055
251.09	1.208
251.46	0.862
251.82	0.274
252.19	0.010
252.55	-0.096
252.91	0.217
253.28	0.163
253.64	-0.701
254.01	-0.741
254.37	-0.187
254.73	0.556
255.10	0.913
255.46	1.165
255.83	1.367
256.19	1.353
256.55	1.132
256.92	1.260
257.28	1.265
257.65	1.529
258.01	1.369
258.37	1.243
258.74	0.946
259.10	0.730
259.46	0.492
259.83	0.368
260.19	0.266
260.55	0.516
260.92	0.380
261.28	0.585
261.64	0.652
262.01	0.630
262.37	0.801
262.73	1.079
263.10	1.619
263.46	1.604
263.82	1.509
264.19	1.436
264.55	0.948
264.91	0.727
265.28	0.232
265.64	0.122
266.00	0.252
266.37	-0.025
266.73	-0.065
267.09	-0.369
267.46	-0.443
267.82	-0.453
268.18	-0.455
268.54	-0.268
268.91	-0.287
269.27	-0.022
269.63	0.041
270.00	0.050
270.36	0.275
270.72	0.503
271.08	0.350
271.45	0.542
271.81	0.634
272.17	0.672
272.53	0.749
272.90	1.012
273.26	1.147
273.62	1.144
273.98	0.798
274.35	0.734
274.71	0.603
275.07	0.799
275.43	0.690
275.80	0.818
276.16	0.741
276.52	0.721
276.88	0.504
277.25	0.117
277.61	-0.121
277.97	-0.059
278.33	-0.020
278.69	-0.130
279.06	-0.149
279.42	-0.055
279.78	-0.132
280.14	0.014
280.50	0.090
280.87	0.295
281.23	0.459
281.59	0.679
281.95	0.899
282.31	0.948
282.68	0.853
283.04	0.867
283.40	0.926
283.76	0.906
284.12	0.937
284.48	0.954
284.85	0.893
285.21	0.907
285.57	0.630
285.93	0.630
286.29	0.452
286.65	0.552
287.02	0.799
287.38	0.823
287.74	0.696
288.10	0.566
288.46	0.432
288.82	0.373
289.18	0.334
289.54	0.608
289.91	0.553
290.27	0.742
290.63	0.817
290.99	0.682
291.35	0.715
291.71	0.910
292.07	0.968
292.43	1.035
292.79	1.244
293.16	1.247
293.52	1.417
293.88	1.494
294.24	1.445
294.60	1.267
294.96	1.153
295.32	1.130
295.68	1.230
296.04	1.340
296.40	1.348
296.76	1.334
297.12	1.288
297.49	0.995
297.85	0.867
298.21	0.870
298.57	0.903
298.93	0.842
299.29	0.791
299.65	0.732
300.01	0.535
300.37	0.447
300.73	0.511
301.09	0.516
301.45	0.600
301.81	0.727
302.17	0.887
302.53	0.880
302.89	0.923
303.25	0.859
303.61	0.852
303.97	0.849
304.33	0.970
304.69	0.887
305.05	0.886
305.41	0.949
305.77	0.997
306.13	0.859
306.49	0.910
306.85	0.995
307.21	1.038
307.57	0.961
307.93	0.953
308.29	1.019
308.65	0.924
309.01	0.912
309.37	0.819
309.73	0.788
310.09	0.886
310.45	1.029
310.81	0.999
311.17	0.959
311.53	0.914
311.89	1.054
312.25	0.902
312.61	0.891
312.96	0.965
313.32	1.121
313.68	0.994
314.04	0.821
314.40	0.710
314.76	0.605
315.12	0.560
315.48	0.592
315.84	0.358
316.20	0.408
316.56	0.414
316.92	0.310
317.27	0.137
317.63	0.250
317.99	0.359
318.35	0.324
318.71	0.380
319.07	0.527
319.43	0.635
319.79	0.842
320.15	0.841
320.50	0.892
320.86	0.919
321.22	1.002
321.58	1.039
321.94	0.966
322.30	0.831
322.66	0.886
323.01	0.644
323.37	0.509
323.73	0.523
324.09	0.475
324.45	0.462
324.81	0.399
325.17	0.368
325.52	0.334
325.88	0.340
326.24	0.578
326.60	0.474
326.96	0.571
327.31	0.548
327.67	0.387
328.03	0.468
328.39	0.403
328.75	0.457
329.11	0.620
329.46	0.613
329.82	0.609
330.18	0.407
330.54	0.446
330.90	0.454
331.25	0.548
331.61	0.672
331.97	0.655
332.33	0.670
332.68	0.787
333.04	0.676
333.40	0.597
333.76	0.564
334.11	0.568
334.47	0.583
334.83	0.550
335.19	0.491
335.54	0.431
335.90	0.421
336.26	0.475
336.62	0.339
336.97	0.232
337.33	0.208
337.69	0.257
338.05	0.252
338.40	0.259
338.76	0.338
339.12	0.456
339.48	0.421
339.83	0.381
340.19	0.343
340.55	0.413
340.90	0.426
341.26	0.451
341.62	0.431
341.97	0.475
342.33	0.512
342.69	0.549
343.04	0.501
343.40	0.462
343.76	0.384
344.12	0.342
344.47	0.305
344.83	0.405
345.19	0.475
345.54	0.512
345.90	0.550
346.26	0.574
346.61	0.547
346.97	0.518
347.32	0.565
347.68	0.630
348.04	0.654
348.39	0.603
348.75	0.612
349.11	0.515
349.46	0.469
349.82	0.458
350.18	0.343
350.53	0.312
350.89	0.303
351.24	0.305
351.60	0.275
351.96	0.332
352.31	0.359
352.67	0.344
353.02	0.290
353.38	0.320
353.74	0.290
354.09	0.283
354.45	0.300
354.80	0.329
355.16	0.339
355.52	0.395
355.87	0.346
356.23	0.400
356.58	0.410
356.94	0.543
357.29	0.533
357.65	0.524
358.00	0.598
358.36	0.572
358.72	0.590
359.07	0.619
359.43	0.619
359.78	0.685
360.14	0.668
360.49	0.624
360.85	0.550
361.20	0.509
361.56	0.501
361.91	0.521
362.27	0.552
362.62	0.572
362.98	0.554
363.33	0.566
363.69	0.521
364.04	0.547
364.40	0.559
364.75	0.619
365.11	0.632
365.46	0.651
365.82	0.619
366.17	0.602
366.53	0.543
366.88	0.516
367.24	0.492
367.59	0.483
367.95	0.482
368.30	0.471
368.66	0.475
369.01	0.497
369.37	0.533
369.72	0.593
370.08	0.655
370.43	0.670
370.78	0.670
371.14	0.664
371.49	0.721
371.85	0.679
372.20	0.704
372.56	0.684
372.91	0.658
373.26	0.648
373.62	0.555
373.97	0.560
374.33	0.601
374.68	0.633
375.03	0.643
375.39	0.579
375.74	0.569
376.10	0.567
376.45	0.598
376.80	0.615
377.16	0.565
377.51	0.617
377.87	0.587
378.22	0.523
378.57	0.513
378.93	0.550
379.28	0.596
379.63	0.641
379.99	0.679
380.34	0.690
380.70	0.711
381.05	0.768
381.40	0.741
381.76	0.762
382.11	0.791
382.46	0.833
382.82	0.826
383.17	0.808
383.52	0.801
383.88	0.793
384.23	0.758
384.58	0.725
384.94	0.705
385.29	0.736
385.64	0.751
385.99	0.791
386.35	0.796
386.70	0.802
387.05	0.790
387.41	0.793
387.76	0.754
388.11	0.785
388.47	0.803
388.82	0.788
389.17	0.765
389.52	0.771
389.88	0.761
390.23	0.760
390.58	0.758
390.93	0.792
391.29	0.815
391.64	0.867
391.99	0.878
392.34	0.900
392.70	0.928
393.05	0.949
393.40	0.911
393.75	0.899
394.11	0.865
394.46	0.846
394.81	0.815
395.16	0.744
395.52	0.710
395.87	0.700
396.22	0.708
396.57	0.676
396.92	0.643
397.28	0.606
397.63	0.570
397.98	0.570
398.33	0.544
398.68	0.525
399.04	0.558
399.39	0.528
399.74	0.487
400.09	0.456
400.44	0.509
400.80	0.534
401.15	0.544
401.50	0.579
401.85	0.581
402.20	0.593
402.55	0.637
402.90	0.628
403.26	0.640
403.61	0.647
403.96	0.625
404.31	0.569
404.66	0.558
405.01	0.563
405.36	0.550
405.72	0.560
406.07	0.548
406.42	0.506
406.77	0.481
407.12	0.481
407.47	0.484
407.82	0.492
408.17	0.492
408.53	0.488
408.88	0.461
409.23	0.442
409.58	0.402
409.93	0.421
410.28	0.441
410.63	0.452
410.98	0.420
411.33	0.410
411.68	0.438
412.03	0.483
412.38	0.477
412.73	0.525
413.09	0.544
413.44	0.617
413.79	0.621
414.14	0.641
414.49	0.691
414.84	0.757
415.19	0.794
415.54	0.818
415.89	0.820
416.24	0.862
416.59	0.879
416.94	0.900
417.29	0.900
417.64	0.906
417.99	0.923
418.34	0.926
418.69	0.934
419.04	0.938
419.39	0.943
419.74	0.948
420.09	0.945
420.44	0.944
420.79	0.944
421.14	0.949
421.49	0.964
421.84	0.958
422.19	0.957
422.54	0.943
422.89	0.939
423.24	0.927
423.59	0.918
423.94	0.906
424.29	0.897
424.64	0.893
424.99	0.860
425.34	0.839
425.68	0.803
426.03	0.776
426.38	0.758
426.73	0.734
427.08	0.713
427.43	0.712
427.78	0.731
428.13	0.724
428.48	0.725
428.83	0.730
429.18	0.725
429.53	0.740
429.87	0.739
430.22	0.741
430.57	0.768
430.92	0.783
431.27	0.786
431.62	0.766
431.97	0.767
432.32	0.747
432.67	0.741
433.01	0.734
433.36	0.717
433.71	0.700
434.06	0.674
434.41	0.638
434.76	0.636
435.11	0.638
435.45	0.639
435.80	0.630
436.15	0.650
436.50	0.683
436.85	0.699
437.20	0.716
437.54	0.725
437.89	0.751
438.24	0.766
438.59	0.759
438.94	0.739
439.29	0.729
439.63	0.743
439.98	0.730
440.33	0.696
440.68	0.703
441.03	0.705
441.37	0.727
441.72	0.734
442.07	0.730
442.42	0.735
442.76	0.774
443.11	0.783
443.46	0.793
443.81	0.805
444.16	0.826
444.50	0.816
444.85	0.814
445.20	0.803
445.55	0.806
445.89	0.806
446.24	0.797
446.59	0.760
446.94	0.742
447.28	0.707
447.63	0.683
447.98	0.653
448.32	0.622
448.67	0.591
449.02	0.577
449.37	0.530
449.71	0.525
450.06	0.510
450.41	0.512
450.75	0.533
451.10	0.554
451.45	0.544
451.79	0.537
452.14	0.535
452.49	0.543
452.84	0.534
453.18	0.533
453.53	0.521
453.88	0.523
454.22	0.532
454.57	0.522
454.92	0.528
455.26	0.558
455.61	0.599
455.95	0.651
456.30	0.662
456.65	0.701
456.99	0.729
457.34	0.753
457.69	0.783
458.03	0.792
458.38	0.805
458.73	0.803
459.07	0.793
459.42	0.763
459.76	0.728
460.11	0.705
460.46	0.657
460.80	0.640
461.15	0.601
461.49	0.557
461.84	0.532
462.19	0.506
462.53	0.483
462.88	0.485
463.22	0.467
463.57	0.456
463.91	0.461
464.26	0.475
464.61	0.461
464.95	0.459
465.30	0.465
465.64	0.463
465.99	0.462
466.33	0.467
466.68	0.449
467.02	0.451
467.37	0.457
467.71	0.439
468.06	0.428
468.41	0.414
468.75	0.406
469.10	0.407
469.44	0.386
469.79	0.377
470.13	0.335
470.48	0.327
470.82	0.324
471.17	0.322
471.51	0.307
471.86	0.298
472.20	0.289
472.55	0.293
472.89	0.281
473.23	0.284
473.58	0.282
473.92	0.300
474.27	0.295
474.61	0.292
474.96	0.295
475.30	0.328
475.65	0.309
475.99	0.319
476.34	0.318
476.68	0.310
477.02	0.314
477.37	0.314
477.71	0.337
478.06	0.374
478.40	0.451
478.75	0.517
479.09	0.591
479.43	0.691
479.78	0.766
480.12	0.839
480.47	0.910
480.81	0.972
481.15	1.033
481.50	1.089
481.84	1.146
482.19	1.188
482.53	1.221
482.87	1.246
483.22	1.240
483.56	1.227
483.90	1.201
484.25	1.168
484.59	1.132
484.94	1.097
485.28	1.058
485.62	1.006
485.97	0.957
486.31	0.925
486.65	0.889
487.00	0.873
487.34	0.864
487.68	0.854
488.03	0.846
488.37	0.837
488.71	0.832
489.06	0.821
489.40	0.826
489.74	0.811
490.09	0.791
490.43	0.770
490.77	0.741
491.11	0.703
491.46	0.671
491.80	0.641
492.14	0.595
492.49	0.561
492.83	0.521
493.17	0.468
493.51	0.440
493.86	0.408
494.20	0.388
494.54	0.381
494.88	0.396
495.23	0.415
495.57	0.427
495.91	0.461
496.25	0.477
496.60	0.494
496.94	0.503
497.28	0.511
497.62	0.521
497.97	0.525
498.31	0.534
498.65	0.534
498.99	0.535
499.33	0.565
499.68	0.579
500.02	0.602
500.36	0.620
500.70	0.641
501.04	0.641
501.39	0.659
501.73	0.681
502.07	0.721
502.41	0.759
502.75	0.791
503.09	0.820
503.44	0.861
503.78	0.896
504.12	0.936
504.46	1.002
504.80	1.081
505.14	1.146
505.49	1.215
505.83	1.271
506.17	1.328
506.51	1.385
506.85	1.449
507.19	1.512
507.53	1.580
507.87	1.659
508.22	1.706
508.56	1.755
508.90	1.810
509.24	1.878
509.58	1.936
509.92	2.006
510.26	2.089
510.60	2.149
510.94	2.209
511.28	2.264
511.63	2.332
511.97	2.426
512.31	2.533
512.65	2.634
512.99	2.736
513.33	2.874
513.67	3.013
514.01	3.169
514.35	3.328
514.69	3.502
515.03	3.657
515.37	3.823
515.71	3.968
516.05	4.096
516.39	4.223
516.73	4.347
517.07	4.454
517.41	4.545
517.75	4.633
518.09	4.722
518.43	4.798
518.77	4.872
519.11	4.945
519.45	5.025
519.79	5.130
520.13	5.237
520.47	5.343
520.81	5.486
521.15	5.659
521.49	5.828
521.83	5.987
522.17	6.136
522.51	6.329
522.85	6.521
523.19	6.747
523.53	6.983
523.87	7.219
524.21	7.446
524.55	7.649
524.89	7.833
525.23	7.995
525.57	8.157
525.91	8.318
526.25	8.445
526.58	8.559
526.92	8.655
527.26	8.718
527.60	8.769
527.94	8.822
528.28	8.853
528.62	8.877
528.96	8.899
529.30	8.910
529.64	8.916
529.97	8.932
530.31	8.942
530.65	8.958
530.99	8.998
531.33	9.047
531.67	9.078
532.01	9.113
532.35	9.138
532.68	9.167
533.02	9.192
533.36	9.213
533.70	9.226
534.04	9.247
534.38	9.248
534.71	9.249
535.05	9.236
535.39	9.256
535.73	9.272
536.07	9.307
536.41	9.345
536.74	9.389
537.08	9.430
537.42	9.503
537.76	9.566
538.10	9.655
538.43	9.725
538.77	9.801
539.11	9.849
539.45	9.891
539.79	9.927
540.12	9.961
540.46	9.974
540.80	9.988
541.14	9.965
541.47	9.940
541.81	9.915
542.15	9.886
542.49	9.840
542.82	9.806
543.16	9.785
543.50	9.753
543.84	9.717
544.17	9.700
544.51	9.687
544.85	9.678
545.18	9.690
545.52	9.667
545.86	9.636
546.20	9.645
546.53	9.645
546.87	9.625
547.21	9.599
547.54	9.574
547.88	9.549
548.22	9.530
548.55	9.513
548.89	9.488
549.23	9.477
549.56	9.492
549.90	9.478
550.24	9.469
550.57	9.464
550.91	9.476
551.25	9.490
551.58	9.503
551.92	9.485
552.26	9.474
552.59	9.440
552.93	9.414
553.27	9.396
553.60	9.377
553.94	9.325
554.27	9.293
554.61	9.274
554.95	9.224
555.28	9.173
555.62	9.152
555.95	9.130
556.29	9.121
556.63	9.118
556.96	9.059
557.30	9.031
557.63	8.994
557.97	8.953
558.31	8.871
558.64	8.821
558.98	8.780
559.31	8.738
559.65	8.685
559.98	8.610
560.32	8.545
560.65	8.502
560.99	8.422
561.33	8.371
561.66	8.312
562.00	8.273
562.33	8.225
562.67	8.166
563.00	8.095
563.34	8.042
563.67	7.991
564.01	7.917
564.34	7.862
564.68	7.819
565.01	7.742
565.35	7.671
565.68	7.580
566.02	7.475
566.35	7.387
566.69	7.303
567.02	7.213
567.36	7.115
567.69	7.036
568.03	6.937
568.36	6.835
568.69	6.768
569.03	6.694
569.36	6.633
569.70	6.573
570.03	6.524
570.37	6.460
570.70	6.396
571.04	6.340
571.37	6.256
571.70	6.202
572.04	6.129
572.37	6.057
572.71	5.971
573.04	5.889
573.37	5.830
573.71	5.742
574.04	5.667
574.38	5.589
574.71	5.526
575.04	5.465
575.38	5.375
575.71	5.305
576.05	5.236
576.38	5.173
576.71	5.101
577.05	5.029
577.38	4.950
577.71	4.849
578.05	4.765
578.38	4.679
578.71	4.601
579.05	4.551
579.38	4.482
579.71	4.419
580.05	4.358
580.38	4.328
580.71	4.266
581.05	4.212
581.38	4.181
581.71	4.160
582.05	4.118
582.38	4.092
582.71	4.041
583.04	4.023
583.38	3.974
583.71	3.937
584.04	3.865
584.38	3.841
584.71	3.822
585.04	3.832
585.37	3.802
585.71	3.791
586.04	3.769
586.37	3.772
586.70	3.770
587.04	3.764
587.37	3.746
587.70	3.760
588.03	3.733
588.37	3.733
588.70	3.705
589.03	3.688
589.36	3.677
589.69	3.651
590.03	3.615
590.36	3.576
590.69	3.541
591.02	3.511
591.35	3.481
591.69	3.472
592.02	3.449
592.35	3.445
592.68	3.432
593.01	3.404
593.35	3.382
593.68	3.383
594.01	3.370
594.34	3.357
594.67	3.366
595.00	3.346
595.34	3.333
595.67	3.303
596.00	3.258
596.33	3.207
596.66	3.175
596.99	3.131
597.32	3.068
597.65	3.012
597.99	2.969
598.32	2.923
598.65	2.871
598.98	2.807
599.31	2.751
599.64	2.752
599.97	2.742
600.30	2.729
600.63	2.750
600.96	2.756
601.30	2.770
601.63	2.793
601.96	2.796
602.29	2.800
602.62	2.799
602.95	2.811
603.28	2.768
603.61	2.732
603.94	2.690
604.27	2.645
604.60	2.595
604.93	2.550
605.26	2.489
605.59	2.443
605.92	2.417
606.25	2.391
606.58	2.340
606.91	2.276
607.24	2.240
607.57	2.227
607.90	2.186
608.23	2.149
608.56	2.091
608.89	2.037
609.22	1.969
609.55	1.890
609.88	1.790
610.21	1.715
610.54	1.662
610.87	1.604
611.20	1.509
611.53	1.457
611.86	1.386
612.19	1.318
612.52	1.246
612.85	1.208
613.18	1.151
613.51	1.108
613.84	1.046
614.17	0.998
614.49	0.985
614.82	0.942
615.15	0.901
615.48	0.887
615.81	0.848
616.14	0.833
616.47	0.766
616.80	0.728
617.13	0.699
617.46	0.684
617.78	0.670
618.11	0.601
618.44	0.574
618.77	0.528
619.10	0.466
619.43	0.455
619.76	0.427
620.09	0.446
620.41	0.443
620.74	0.451
621.07	0.461
621.40	0.468
621.73	0.485
622.06	0.506
622.38	0.527
622.71	0.570
623.04	0.603
623.37	0.646
623.70	0.678
624.02	0.724
624.35	0.772
624.68	0.787
625.01	0.810
625.34	0.841
625.66	0.867
625.99	0.892
626.32	0.896
626.65	0.905
626.98	0.876
627.30	0.839
627.63	0.795
627.96	0.738
628.29	0.692
628.61	0.645
628.94	0.599
629.27	0.545
629.60	0.452
629.92	0.420
630.25	0.354
630.58	0.330
630.91	0.301
631.23	0.277
631.56	0.273
631.89	0.246
632.21	0.225
632.54	0.208
632.87	0.187
633.19	0.174
633.52	0.113
633.85	0.082
634.18	0.020
634.50	-0.046
634.83	-0.086
635.16	-0.156
635.48	-0.206
635.81	-0.272
636.14	-0.362
636.46	-0.443
636.79	-0.492
637.11	-0.531
637.44	-0.635
637.77	-0.708
638.09	-0.769
638.42	-0.856
638.75	-0.897
639.07	-0.928
639.40	-0.957
639.73	-0.999
640.05	-1.036
640.38	-1.050
640.70	-1.119
641.03	-1.094
641.36	-1.089
641.68	-1.097
642.01	-1.108
642.33	-1.140
642.66	-1.161
642.98	-1.191
643.31	-1.188
643.64	-1.184
643.96	-1.184
644.29	-1.144
644.61	-1.115
644.94	-1.091
645.26	-1.057
645.59	-1.007
645.91	-0.990
646.24	-0.977
646.56	-0.989
646.89	-0.997
647.22	-1.009
647.54	-1.022
647.87	-1.021
648.19	-1.055
648.52	-1.068
648.84	-1.086
649.17	-1.129
649.49	-1.134
649.82	-1.136
650.14	-1.099
650.47	-1.114
650.79	-1.085
651.11	-1.097
651.44	-1.093
651.76	-1.119
652.09	-1.104
652.41	-1.073
652.74	-1.057
653.06	-1.046
653.39	-1.013
653.71	-1.010
654.04	-0.967
654.36	-0.957
654.68	-0.903
655.01	-0.865
655.33	-0.816
655.66	-0.823
655.98	-0.794
656.30	-0.787
656.63	-0.735
