OOIBase32 Version 2.0.0.6 Data File
++++++++++++++++++++++++++++++++++++
Date: 01-23-2012, 23:08:52
User: Valued Ocean Optics Customer
Spectrometer Serial Number: USB2E2917
Spectrometer Channel: Master
Integration Time (msec): 5
Spectra Averaged: 10
Boxcar Smoothing: 5
Correct for Electrical Dark: Enabled
Time Normalized: Disabled
Dual-beam Reference: Disabled
Reference Channel: Master
Temperature: Not acquired
Spectrometer Type: S2000
ADC Type: USB2000
Number of Pixels in File: 2048
Graph Title: 
>>>>>Begin Spectral Data<<<<<
180.30	0.000
180.67	0.000
181.03	17.289
181.40	513.035
181.77	14257.034
182.14	91.757
182.51	-485.571
182.88	-22.645
183.25	55.173
183.62	82.996
183.99	179.025
184.36	116.208
184.73	-134.028
185.10	42.852
185.46	-432.945
185.83	-535.806
186.20	-247.424
186.57	94.187
186.94	44.747
187.31	0.781
187.68	65.114
188.05	97.615
188.42	128.158
188.78	222.889
189.15	765.304
189.52	-262.629
189.89	-75.567
190.26	-82.087
190.63	-36.534
191.00	-22.177
191.37	1.763
191.73	22.890
192.10	18.952
192.47	22.859
192.84	18.924
193.21	21.476
193.58	27.575
193.94	14.911
194.31	14.224
194.68	17.303
195.05	10.178
195.42	11.264
195.79	0.636
196.15	-1.324
196.52	-26.204
196.89	-45.374
197.26	-59.609
197.63	-53.317
198.00	-26.101
198.36	-24.038
198.73	-48.347
199.10	-31.087
199.47	-38.045
199.84	-41.172
200.20	-32.627
200.57	-2.036
200.94	10.999
201.31	29.314
201.68	28.867
202.04	24.070
202.41	24.821
202.78	20.691
203.15	17.107
203.51	21.441
203.88	4.754
204.25	-2.213
204.62	-32.175
204.98	-37.167
205.35	-31.540
205.72	-34.990
206.09	-26.675
206.46	-50.008
206.82	-44.112
207.19	-38.715
207.56	-89.739
207.92	-58.607
208.29	-30.397
208.66	16.060
209.03	6.824
209.39	-2.925
209.76	-11.146
210.13	-74.455
210.50	-48.806
210.86	-26.405
211.23	-38.961
211.60	-9.143
211.96	-21.670
212.33	-33.151
212.70	-58.101
213.07	-60.663
213.43	-94.699
213.80	-75.639
214.17	-17.584
214.53	-14.851
214.90	-8.670
215.27	10.923
215.63	6.146
216.00	17.196
216.37	18.256
216.74	8.673
217.10	14.235
217.47	17.285
217.84	17.441
218.20	8.113
218.57	9.404
218.94	1.871
219.30	-14.622
219.67	-17.031
220.04	-15.044
220.40	-17.301
220.77	-11.249
221.13	-3.031
221.50	2.673
221.87	0.255
222.23	2.369
222.60	1.027
222.97	-2.194
223.33	-0.392
223.70	-1.074
224.07	-4.339
224.43	-1.330
224.80	0.680
225.16	-5.990
225.53	-6.011
225.90	-6.051
226.26	-5.203
226.63	-3.100
226.99	-0.028
227.36	1.401
227.73	3.240
228.09	2.535
228.46	2.131
228.82	1.736
229.19	3.222
229.56	2.490
229.92	3.197
230.29	2.545
230.65	1.131
231.02	-1.041
231.38	-4.132
231.75	-6.951
232.12	-6.915
232.48	-8.506
232.85	-9.921
233.21	-10.322
233.58	-13.113
233.94	-12.096
234.31	-12.695
234.68	-11.682
235.04	-11.574
235.41	-9.663
235.77	-6.957
236.14	-5.590
236.50	-2.642
236.87	-1.471
237.23	-0.915
237.60	0.163
237.96	-0.287
238.33	0.431
238.69	-0.696
239.06	-0.175
239.42	0.181
239.79	-0.807
240.15	-0.935
240.52	-0.689
240.88	-0.533
241.25	-0.679
241.61	-0.449
241.98	-0.583
242.34	-0.969
242.71	-0.626
243.07	-0.652
243.44	-1.072
243.80	-0.865
244.17	-0.673
244.53	-1.333
244.90	-1.530
245.26	-1.533
245.63	-1.386
245.99	-1.424
246.36	-1.261
246.72	-0.923
247.09	-1.339
247.45	-0.977
247.81	-0.631
248.18	-0.743
248.54	-0.358
248.91	-0.509
249.27	-0.690
249.64	-0.414
250.00	-0.153
250.36	-0.249
250.73	-0.688
251.09	-0.215
251.46	-0.503
251.82	-0.838
252.19	-0.878
252.55	-0.822
252.91	-0.343
253.28	0.202
253.64	-0.296
254.01	-0.136
254.37	0.116
254.73	0.590
255.10	0.837
255.46	1.212
255.83	1.080
256.19	0.973
256.55	0.560
256.92	0.612
257.28	0.386
257.65	0.491
258.01	0.487
258.37	0.411
258.74	0.206
259.10	0.017
259.46	-0.277
259.83	-0.254
260.19	-0.155
260.55	0.054
260.92	-0.148
261.28	-0.081
261.64	-0.059
262.01	-0.106
262.37	-0.034
262.73	-0.005
263.10	0.238
263.46	0.157
263.82	0.125
264.19	-0.005
264.55	-0.255
264.91	-0.266
265.28	-0.365
265.64	-0.566
266.00	-0.657
266.37	-0.801
266.73	-0.760
267.09	-0.845
267.46	-0.818
267.82	-1.104
268.18	-1.148
268.54	-0.960
268.91	-0.853
269.27	-0.799
269.63	-0.489
270.00	-0.552
270.36	-0.650
270.72	-0.468
271.08	-0.590
271.45	-0.417
271.81	-0.426
272.17	-0.453
272.53	-0.445
272.90	-0.320
273.26	0.033
273.62	-0.174
273.98	-0.325
274.35	-0.281
274.71	-0.563
275.07	-0.338
275.43	-0.352
275.80	-0.224
276.16	-0.223
276.52	-0.376
276.88	-0.540
277.25	-1.020
277.61	-1.159
277.97	-0.967
278.33	-0.831
278.69	-0.762
279.06	-0.783
279.42	-0.769
279.78	-0.730
280.14	-0.645
280.50	-0.498
280.87	-0.389
281.23	-0.296
281.59	-0.091
281.95	-0.041
282.31	0.118
282.68	0.025
283.04	-0.170
283.40	-0.114
283.76	-0.138
284.12	-0.019
284.48	0.113
284.85	0.006
285.21	0.138
285.57	0.072
285.93	0.113
286.29	-0.035
286.65	-0.052
287.02	0.367
287.38	0.345
287.74	0.340
288.10	0.232
288.46	0.024
288.82	-0.056
289.18	-0.119
289.54	-0.003
289.91	-0.011
290.27	0.034
290.63	0.260
290.99	0.063
291.35	0.073
291.71	0.319
292.07	0.325
292.43	0.376
292.79	0.514
293.16	0.368
293.52	0.289
293.88	0.356
294.24	0.306
294.60	0.202
294.96	0.075
295.32	0.110
295.68	0.123
296.04	0.136
296.40	0.121
296.76	0.143
297.12	0.137
297.49	0.042
297.85	-0.257
298.21	-0.208
298.57	-0.351
298.93	-0.246
299.29	-0.336
299.65	-0.492
300.01	-0.575
300.37	-0.464
300.73	-0.316
301.09	-0.243
301.45	-0.217
301.81	0.006
302.17	0.006
302.53	0.013
302.89	-0.079
303.25	-0.049
303.61	-0.064
303.97	-0.102
304.33	-0.163
304.69	-0.193
305.05	-0.274
305.41	-0.196
305.77	-0.179
306.13	-0.211
306.49	-0.135
306.85	-0.064
307.21	-0.068
307.57	0.017
307.93	0.042
308.29	0.114
308.65	0.040
309.01	0.092
309.37	-0.013
309.73	-0.053
310.09	0.067
310.45	0.225
310.81	0.205
311.17	0.178
311.53	0.169
311.89	0.261
312.25	0.193
312.61	0.153
312.96	0.242
313.32	0.340
313.68	0.267
314.04	0.179
314.40	0.115
314.76	0.115
315.12	0.173
315.48	0.141
315.84	-0.008
316.20	-0.034
316.56	-0.060
316.92	-0.195
317.27	-0.149
317.63	0.024
317.99	-0.097
318.35	-0.122
318.71	-0.027
319.07	-0.027
319.43	-0.039
319.79	0.121
320.15	0.096
320.50	0.161
320.86	0.159
321.22	0.016
321.58	-0.071
321.94	-0.071
322.30	-0.075
322.66	-0.181
323.01	-0.162
323.37	-0.193
323.73	-0.289
324.09	-0.293
324.45	-0.221
324.81	-0.193
325.17	-0.107
325.52	-0.144
325.88	-0.181
326.24	-0.166
326.60	-0.086
326.96	-0.113
327.31	-0.173
327.67	-0.210
328.03	-0.232
328.39	-0.360
328.75	-0.301
329.11	-0.167
329.46	-0.092
329.82	-0.002
330.18	0.036
330.54	-0.033
330.90	-0.157
331.25	-0.048
331.61	0.127
331.97	0.196
332.33	0.270
332.68	0.282
333.04	0.156
333.40	0.062
333.76	0.042
334.11	-0.030
334.47	-0.068
334.83	-0.068
335.19	-0.142
335.54	-0.193
335.90	-0.169
336.26	-0.182
336.62	-0.274
336.97	-0.338
337.33	-0.387
337.69	-0.362
338.05	-0.474
338.40	-0.454
338.76	-0.423
339.12	-0.398
339.48	-0.456
339.83	-0.587
340.19	-0.633
340.55	-0.577
340.90	-0.578
341.26	-0.581
341.62	-0.601
341.97	-0.492
342.33	-0.467
342.69	-0.407
343.04	-0.403
343.40	-0.519
343.76	-0.559
344.12	-0.513
344.47	-0.478
344.83	-0.402
345.19	-0.380
345.54	-0.375
345.90	-0.394
346.26	-0.377
346.61	-0.412
346.97	-0.365
347.32	-0.226
347.68	-0.160
348.04	-0.193
348.39	-0.246
348.75	-0.248
349.11	-0.236
349.46	-0.286
349.82	-0.270
350.18	-0.269
350.53	-0.272
350.89	-0.350
351.24	-0.417
351.60	-0.364
351.96	-0.343
352.31	-0.358
352.67	-0.359
353.02	-0.327
353.38	-0.293
353.74	-0.269
354.09	-0.273
354.45	-0.203
354.80	-0.155
355.16	-0.066
355.52	-0.055
355.87	-0.134
356.23	-0.110
356.58	-0.075
356.94	-0.055
357.29	-0.075
357.65	-0.148
358.00	-0.207
358.36	-0.258
358.72	-0.273
359.07	-0.307
359.43	-0.352
359.78	-0.283
360.14	-0.304
360.49	-0.356
360.85	-0.338
361.20	-0.317
361.56	-0.297
361.91	-0.244
362.27	-0.233
362.62	-0.196
362.98	-0.193
363.33	-0.218
363.69	-0.248
364.04	-0.210
364.40	-0.192
364.75	-0.241
365.11	-0.262
365.46	-0.307
365.82	-0.333
366.17	-0.364
366.53	-0.380
366.88	-0.381
367.24	-0.343
367.59	-0.333
367.95	-0.330
368.30	-0.373
368.66	-0.361
369.01	-0.347
369.37	-0.304
369.72	-0.251
370.08	-0.182
370.43	-0.197
370.78	-0.210
371.14	-0.252
371.49	-0.259
371.85	-0.297
372.20	-0.275
372.56	-0.288
372.91	-0.248
373.26	-0.210
373.62	-0.296
373.97	-0.294
374.33	-0.332
374.68	-0.348
375.03	-0.298
375.39	-0.309
375.74	-0.311
376.10	-0.309
376.45	-0.274
376.80	-0.284
377.16	-0.339
377.51	-0.287
377.87	-0.322
378.22	-0.328
378.57	-0.315
378.93	-0.325
379.28	-0.263
379.63	-0.248
379.99	-0.217
380.34	-0.232
380.70	-0.269
381.05	-0.231
381.40	-0.249
381.76	-0.226
382.11	-0.194
382.46	-0.173
382.82	-0.149
383.17	-0.195
383.52	-0.203
383.88	-0.222
384.23	-0.215
384.58	-0.191
384.94	-0.211
385.29	-0.179
385.64	-0.182
385.99	-0.157
386.35	-0.131
386.70	-0.141
387.05	-0.176
387.41	-0.155
387.76	-0.187
388.11	-0.200
388.47	-0.236
388.82	-0.207
389.17	-0.218
389.52	-0.228
389.88	-0.196
390.23	-0.223
390.58	-0.201
390.93	-0.142
391.29	-0.159
391.64	-0.114
391.99	-0.084
392.34	-0.038
392.70	-0.071
393.05	-0.118
393.40	-0.106
393.75	-0.166
394.11	-0.157
394.46	-0.191
394.81	-0.233
395.16	-0.237
395.52	-0.259
395.87	-0.283
396.22	-0.296
396.57	-0.302
396.92	-0.286
397.28	-0.331
397.63	-0.353
397.98	-0.381
398.33	-0.393
398.68	-0.392
399.04	-0.404
399.39	-0.417
399.74	-0.424
400.09	-0.438
400.44	-0.421
400.80	-0.403
401.15	-0.398
401.50	-0.365
401.85	-0.346
402.20	-0.352
402.55	-0.334
402.90	-0.354
403.26	-0.350
403.61	-0.361
403.96	-0.348
404.31	-0.344
404.66	-0.334
405.01	-0.337
405.36	-0.346
405.72	-0.366
406.07	-0.358
406.42	-0.372
406.77	-0.337
407.12	-0.312
407.47	-0.307
407.82	-0.311
408.17	-0.321
408.53	-0.330
408.88	-0.343
409.23	-0.349
409.58	-0.368
409.93	-0.346
410.28	-0.311
410.63	-0.339
410.98	-0.374
411.33	-0.335
411.68	-0.294
412.03	-0.254
412.38	-0.261
412.73	-0.204
413.09	-0.149
413.44	-0.094
413.79	-0.074
414.14	-0.054
414.49	0.011
414.84	0.081
415.19	0.106
415.54	0.127
415.89	0.135
416.24	0.189
416.59	0.211
416.94	0.221
417.29	0.244
417.64	0.249
417.99	0.267
418.34	0.285
418.69	0.302
419.04	0.309
419.39	0.319
419.74	0.338
420.09	0.358
420.44	0.372
420.79	0.394
421.14	0.405
421.49	0.431
421.84	0.431
422.19	0.450
422.54	0.431
422.89	0.433
423.24	0.426
423.59	0.421
423.94	0.399
424.29	0.383
424.64	0.361
424.99	0.348
425.34	0.328
425.68	0.312
426.03	0.270
426.38	0.275
426.73	0.269
427.08	0.274
427.43	0.282
427.78	0.300
428.13	0.310
428.48	0.318
428.83	0.318
429.18	0.326
429.53	0.341
429.87	0.340
430.22	0.331
430.57	0.346
430.92	0.341
431.27	0.340
431.62	0.328
431.97	0.336
432.32	0.329
432.67	0.319
433.01	0.308
433.36	0.304
433.71	0.309
434.06	0.310
434.41	0.300
434.76	0.317
435.11	0.321
435.45	0.319
435.80	0.317
436.15	0.328
436.50	0.349
436.85	0.375
437.20	0.369
437.54	0.382
437.89	0.404
438.24	0.419
438.59	0.403
438.94	0.406
439.29	0.394
439.63	0.404
439.98	0.411
440.33	0.398
440.68	0.401
441.03	0.420
441.37	0.420
441.72	0.418
442.07	0.416
442.42	0.426
442.76	0.432
443.11	0.453
443.46	0.461
443.81	0.464
444.16	0.500
444.50	0.492
444.85	0.488
445.20	0.485
445.55	0.483
445.89	0.486
446.24	0.492
446.59	0.478
446.94	0.470
447.28	0.454
447.63	0.443
447.98	0.410
448.32	0.401
448.67	0.393
449.02	0.378
449.37	0.360
449.71	0.351
450.06	0.335
450.41	0.333
450.75	0.330
451.10	0.325
451.45	0.312
451.79	0.304
452.14	0.301
452.49	0.296
452.84	0.300
453.18	0.302
453.53	0.287
453.88	0.294
454.22	0.314
454.57	0.335
454.92	0.350
455.26	0.385
455.61	0.415
455.95	0.447
456.30	0.478
456.65	0.510
456.99	0.547
457.34	0.567
457.69	0.582
458.03	0.590
458.38	0.595
458.73	0.595
459.07	0.588
459.42	0.567
459.76	0.532
460.11	0.496
460.46	0.466
460.80	0.431
461.15	0.411
461.49	0.381
461.84	0.352
462.19	0.328
462.53	0.319
462.88	0.307
463.22	0.303
463.57	0.314
463.91	0.334
464.26	0.346
464.61	0.339
464.95	0.319
465.30	0.320
465.64	0.336
465.99	0.339
466.33	0.336
466.68	0.327
467.02	0.320
467.37	0.309
467.71	0.290
468.06	0.277
468.41	0.270
468.75	0.282
469.10	0.278
469.44	0.262
469.79	0.246
470.13	0.229
470.48	0.218
470.82	0.209
471.17	0.214
471.51	0.189
471.86	0.167
472.20	0.157
472.55	0.156
472.89	0.153
473.23	0.129
473.58	0.119
473.92	0.111
474.27	0.107
474.61	0.098
474.96	0.095
475.30	0.106
475.65	0.100
475.99	0.090
476.34	0.089
476.68	0.091
477.02	0.099
477.37	0.111
477.71	0.141
478.06	0.183
478.40	0.263
478.75	0.331
479.09	0.426
479.43	0.522
479.78	0.608
480.12	0.671
480.47	0.730
480.81	0.787
481.15	0.845
481.50	0.900
481.84	0.946
482.19	0.982
482.53	1.021
482.87	1.039
483.22	1.034
483.56	1.025
483.90	1.002
484.25	0.972
484.59	0.947
484.94	0.917
485.28	0.882
485.62	0.851
485.97	0.807
486.31	0.773
486.65	0.747
487.00	0.732
487.34	0.721
487.68	0.723
488.03	0.730
488.37	0.728
488.71	0.727
489.06	0.714
489.40	0.714
489.74	0.711
490.09	0.701
490.43	0.682
490.77	0.664
491.11	0.638
491.46	0.613
491.80	0.594
492.14	0.566
492.49	0.544
492.83	0.531
493.17	0.504
493.51	0.492
493.86	0.482
494.20	0.488
494.54	0.495
494.88	0.526
495.23	0.555
495.57	0.576
495.91	0.612
496.25	0.645
496.60	0.677
496.94	0.695
497.28	0.725
497.62	0.752
497.97	0.780
498.31	0.810
498.65	0.833
498.99	0.859
499.33	0.910
499.68	0.958
500.02	1.003
500.36	1.042
500.70	1.091
501.04	1.123
501.39	1.159
501.73	1.197
502.07	1.273
502.41	1.346
502.75	1.420
503.09	1.476
503.44	1.545
503.78	1.604
504.12	1.679
504.46	1.786
504.80	1.904
505.14	2.014
505.49	2.133
505.83	2.225
506.17	2.329
506.51	2.416
506.85	2.516
507.19	2.606
507.53	2.718
507.87	2.832
508.22	2.915
508.56	3.001
508.90	3.087
509.24	3.179
509.58	3.270
509.92	3.374
510.26	3.490
510.60	3.611
510.94	3.728
511.28	3.840
511.63	3.961
511.97	4.112
512.31	4.256
512.65	4.421
512.99	4.597
513.33	4.805
513.67	4.997
514.01	5.217
514.35	5.432
514.69	5.652
515.03	5.858
515.37	6.066
515.71	6.250
516.05	6.437
516.39	6.600
516.73	6.755
517.07	6.897
517.41	7.033
517.75	7.165
518.09	7.296
518.43	7.421
518.77	7.550
519.11	7.671
519.45	7.800
519.79	7.955
520.13	8.140
520.47	8.333
520.81	8.529
521.15	8.753
521.49	8.947
521.83	9.150
522.17	9.350
522.51	9.589
522.85	9.854
523.19	10.143
523.53	10.421
523.87	10.712
524.21	10.991
524.55	11.251
524.89	11.499
525.23	11.737
525.57	11.939
525.91	12.143
526.25	12.316
526.58	12.472
526.92	12.593
527.26	12.690
527.60	12.755
527.94	12.823
528.28	12.880
528.62	12.912
528.96	12.955
529.30	12.998
529.64	13.038
529.97	13.075
530.31	13.102
530.65	13.157
530.99	13.239
531.33	13.338
531.67	13.408
532.01	13.472
532.35	13.533
532.68	13.580
533.02	13.622
533.36	13.653
533.70	13.683
534.04	13.715
534.38	13.741
534.71	13.757
535.05	13.758
535.39	13.784
535.73	13.839
536.07	13.900
536.41	13.963
536.74	14.039
537.08	14.109
537.42	14.210
537.76	14.303
538.10	14.412
538.43	14.507
538.77	14.596
539.11	14.673
539.45	14.727
539.79	14.786
540.12	14.833
540.46	14.860
540.80	14.881
541.14	14.868
541.47	14.848
541.81	14.815
542.15	14.795
542.49	14.778
542.82	14.758
543.16	14.737
543.50	14.719
543.84	14.694
544.17	14.684
544.51	14.696
544.85	14.691
545.18	14.718
545.52	14.746
545.86	14.745
546.20	14.767
546.53	14.760
546.87	14.765
547.21	14.747
547.54	14.740
547.88	14.750
548.22	14.735
548.55	14.744
548.89	14.759
549.23	14.742
549.56	14.758
549.90	14.784
550.24	14.810
550.57	14.829
550.91	14.846
551.25	14.882
551.58	14.882
551.92	14.917
552.26	14.915
552.59	14.894
552.93	14.901
553.27	14.897
553.60	14.860
553.94	14.832
554.27	14.806
554.61	14.812
554.95	14.790
555.28	14.767
555.62	14.727
555.95	14.740
556.29	14.728
556.63	14.713
556.96	14.673
557.30	14.651
557.63	14.607
557.97	14.582
558.31	14.504
558.64	14.441
558.98	14.410
559.31	14.391
559.65	14.344
559.98	14.308
560.32	14.236
560.65	14.193
560.99	14.119
561.33	14.073
561.66	13.998
562.00	13.964
562.33	13.920
562.67	13.835
563.00	13.750
563.34	13.675
563.67	13.619
564.01	13.564
564.34	13.492
564.68	13.412
565.01	13.331
565.35	13.274
565.68	13.201
566.02	13.092
566.35	13.021
566.69	12.913
567.02	12.816
567.36	12.680
567.69	12.590
568.03	12.501
568.36	12.391
568.69	12.301
569.03	12.199
569.36	12.092
569.70	12.023
570.03	11.944
570.37	11.865
570.70	11.776
571.04	11.708
571.37	11.593
571.70	11.508
572.04	11.430
572.37	11.345
572.71	11.241
573.04	11.137
573.37	11.046
573.71	10.941
574.04	10.847
574.38	10.752
574.71	10.658
575.04	10.590
575.38	10.487
575.71	10.401
576.05	10.305
576.38	10.233
576.71	10.146
577.05	10.051
577.38	9.956
577.71	9.861
578.05	9.767
578.38	9.673
578.71	9.579
579.05	9.483
579.38	9.414
579.71	9.320
580.05	9.223
580.38	9.173
580.71	9.098
581.05	9.039
581.38	8.973
581.71	8.921
582.05	8.862
582.38	8.826
582.71	8.775
583.04	8.732
583.38	8.675
583.71	8.662
584.04	8.599
584.38	8.582
584.71	8.543
585.04	8.529
585.37	8.507
585.71	8.487
586.04	8.440
586.37	8.440
586.70	8.414
587.04	8.393
587.37	8.371
587.70	8.353
588.03	8.321
588.37	8.298
588.70	8.261
589.03	8.227
589.36	8.195
589.69	8.129
590.03	8.073
590.36	8.037
590.69	7.999
591.02	7.948
591.35	7.900
591.69	7.846
592.02	7.832
592.35	7.782
592.68	7.767
593.01	7.715
593.35	7.722
593.68	7.717
594.01	7.690
594.34	7.674
594.67	7.649
595.00	7.628
595.34	7.622
595.67	7.556
596.00	7.537
596.33	7.495
596.66	7.453
596.99	7.400
597.32	7.328
597.65	7.267
597.99	7.204
598.32	7.130
598.65	7.076
598.98	7.013
599.31	6.990
599.64	6.974
599.97	6.923
600.30	6.920
600.63	6.917
600.96	6.918
601.30	6.905
601.63	6.925
601.96	6.926
602.29	6.907
602.62	6.885
602.95	6.861
603.28	6.823
603.61	6.764
603.94	6.704
604.27	6.645
604.60	6.575
604.93	6.533
605.26	6.453
605.59	6.378
605.92	6.305
606.25	6.224
606.58	6.142
606.91	6.046
607.24	6.021
607.57	5.964
607.90	5.895
608.23	5.814
608.56	5.727
608.89	5.640
609.22	5.575
609.55	5.487
609.88	5.383
610.21	5.299
610.54	5.215
610.87	5.093
611.20	5.005
611.53	4.916
611.86	4.841
612.19	4.745
612.52	4.686
612.85	4.637
613.18	4.593
613.51	4.530
613.84	4.458
614.17	4.397
614.49	4.365
614.82	4.278
615.15	4.228
615.48	4.193
615.81	4.129
616.14	4.053
616.47	3.937
616.80	3.883
617.13	3.837
617.46	3.776
617.78	3.733
618.11	3.675
618.44	3.620
618.77	3.543
619.10	3.463
619.43	3.446
619.76	3.410
620.09	3.414
620.41	3.373
620.74	3.373
621.07	3.376
621.40	3.360
621.73	3.355
622.06	3.378
622.38	3.401
622.71	3.452
623.04	3.460
623.37	3.487
623.70	3.493
624.02	3.532
624.35	3.554
624.68	3.566
625.01	3.590
625.34	3.626
625.66	3.640
625.99	3.656
626.32	3.637
626.65	3.635
626.98	3.630
627.30	3.626
627.63	3.585
627.96	3.534
628.29	3.481
628.61	3.408
628.94	3.331
629.27	3.300
629.60	3.217
629.92	3.194
630.25	3.139
630.58	3.093
630.91	3.070
631.23	3.024
631.56	2.996
631.89	2.976
632.21	2.960
632.54	2.926
632.87	2.874
633.19	2.827
633.52	2.761
633.85	2.729
634.18	2.651
634.50	2.528
634.83	2.470
635.16	2.369
635.48	2.262
635.81	2.195
636.14	2.105
636.46	2.014
636.79	1.940
637.11	1.846
637.44	1.718
637.77	1.664
638.09	1.597
638.42	1.499
638.75	1.442
639.07	1.372
639.40	1.298
639.73	1.221
640.05	1.136
640.38	1.113
640.70	1.003
641.03	0.980
641.36	0.877
641.68	0.844
642.01	0.782
642.33	0.724
642.66	0.685
642.98	0.610
643.31	0.561
643.64	0.509
643.96	0.451
644.29	0.446
644.61	0.388
644.94	0.381
645.26	0.365
645.59	0.373
