OOIBase32 Version 2.0.0.6 Data File
++++++++++++++++++++++++++++++++++++
Date: 01-23-2012, 23:15:06
User: Valued Ocean Optics Customer
Spectrometer Serial Number: USB2E2917
Spectrometer Channel: Master
Integration Time (msec): 5
Spectra Averaged: 10
Boxcar Smoothing: 5
Correct for Electrical Dark: Enabled
Time Normalized: Disabled
Dual-beam Reference: Disabled
Reference Channel: Master
Temperature: Not acquired
Spectrometer Type: S2000
ADC Type: USB2000
Number of Pixels in File: 2048
Graph Title: 
>>>>>Begin Spectral Data<<<<<
180.30	0.000
180.67	0.000
181.03	177.314
181.40	644.664
181.77	590.138
182.14	111.255
182.51	-294.098
182.88	-111.273
183.25	2.585
183.62	22.302
183.99	334.907
184.36	100.688
184.73	190.014
185.10	188.471
185.46	495.238
185.83	355.353
186.20	-65.415
186.57	223.564
186.94	49.698
187.31	32.927
187.68	68.371
188.05	39.347
188.42	30.192
188.78	142.403
189.15	407.629
189.52	-113.655
189.89	-14.122
190.26	-8.253
190.63	3.635
191.00	9.673
191.37	16.102
191.73	21.086
192.10	24.292
192.47	24.206
192.84	23.347
193.21	24.685
193.58	25.980
193.94	20.842
194.31	19.034
194.68	19.075
195.05	12.494
195.42	19.407
195.79	17.051
196.15	13.672
196.52	1.301
196.89	0.451
197.26	-5.132
197.63	12.521
198.00	32.401
198.36	34.254
198.73	2.886
199.10	1.585
199.47	-5.000
199.84	-7.352
200.20	-0.879
200.57	10.074
200.94	19.070
201.31	16.438
201.68	9.498
202.04	0.267
202.41	2.427
202.78	11.643
203.15	31.768
203.51	36.593
203.88	24.126
204.25	5.156
204.62	-21.885
204.98	-34.227
205.35	-12.403
205.72	0.393
206.09	-10.885
206.46	-80.328
206.82	-67.444
207.19	-91.062
207.56	-167.761
207.92	-129.220
208.29	-117.143
208.66	-62.963
209.03	-60.555
209.39	-52.994
209.76	-67.232
210.13	-137.837
210.50	-86.111
210.86	-70.960
211.23	-74.957
211.60	-28.123
211.96	-23.140
212.33	-20.113
212.70	-22.244
213.07	-24.569
213.43	-61.307
213.80	-73.930
214.17	-26.028
214.53	-11.407
214.90	-14.721
215.27	-10.898
215.63	-21.666
216.00	-26.128
216.37	-17.190
216.74	-21.618
217.10	-11.120
217.47	-13.389
217.84	2.240
218.20	0.582
218.57	4.177
218.94	2.918
219.30	1.252
219.67	-1.547
220.04	1.956
220.40	-10.337
220.77	-16.323
221.13	-11.572
221.50	-2.723
221.87	-8.163
222.23	-12.248
222.60	-17.702
222.97	-15.407
223.33	-13.247
223.70	-8.056
224.07	-10.119
224.43	-5.511
224.80	-0.304
225.16	-3.681
225.53	-5.495
225.90	-9.207
226.26	-4.670
226.63	-3.781
226.99	-2.452
227.36	-2.482
227.73	-1.562
228.09	-1.146
228.46	-0.132
228.82	-0.391
229.19	0.514
229.56	1.850
229.92	4.183
230.29	2.832
230.65	3.056
231.02	1.397
231.38	0.229
231.75	-1.110
232.12	-3.206
232.48	-5.160
232.85	-6.147
233.21	-7.941
233.58	-9.326
233.94	-7.056
234.31	-8.971
234.68	-8.950
235.04	-8.107
235.41	-5.306
235.77	-3.137
236.14	-0.557
236.50	0.325
236.87	0.146
237.23	1.174
237.60	0.362
237.96	-0.958
238.33	-0.438
238.69	-1.122
239.06	-1.316
239.42	-2.144
239.79	-3.587
240.15	-3.722
240.52	-3.334
240.88	-3.013
241.25	-3.270
241.61	-2.582
241.98	-2.277
242.34	-2.212
242.71	-1.515
243.07	-1.220
243.44	-0.984
243.80	-0.442
244.17	-0.350
244.53	-0.808
244.90	-0.628
245.26	-0.555
245.63	-0.719
245.99	-0.908
246.36	-0.822
246.72	-0.739
247.09	-0.854
247.45	-0.952
247.81	-0.786
248.18	-0.967
248.54	-0.864
248.91	-1.336
249.27	-1.328
249.64	-1.280
250.00	-1.119
250.36	-1.029
250.73	-1.385
251.09	-1.380
251.46	-1.158
251.82	-1.653
252.19	-1.442
252.55	-1.698
252.91	-1.112
253.28	-1.198
253.64	-1.155
254.01	-0.816
254.37	-0.733
254.73	-0.429
255.10	-0.208
255.46	0.006
255.83	0.122
256.19	-0.103
256.55	-0.055
256.92	0.068
257.28	0.037
257.65	0.322
258.01	0.324
258.37	0.195
258.74	0.001
259.10	-0.266
259.46	-0.426
259.83	-0.550
260.19	-0.402
260.55	-0.282
260.92	-0.495
261.28	-0.371
261.64	-0.453
262.01	-0.754
262.37	-0.717
262.73	-0.785
263.10	-0.611
263.46	-0.431
263.82	-0.467
264.19	-0.679
264.55	-1.004
264.91	-1.057
265.28	-1.234
265.64	-1.636
266.00	-1.479
266.37	-1.332
266.73	-1.232
267.09	-1.043
267.46	-1.179
267.82	-1.324
268.18	-1.143
268.54	-0.848
268.91	-0.747
269.27	-0.654
269.63	-0.326
270.00	-0.342
270.36	-0.410
270.72	-0.217
271.08	-0.321
271.45	-0.421
271.81	-0.262
272.17	-0.469
272.53	-0.441
272.90	-0.454
273.26	-0.189
273.62	-0.336
273.98	-0.470
274.35	-0.412
274.71	-0.444
275.07	-0.484
275.43	-0.296
275.80	-0.267
276.16	0.027
276.52	-0.047
276.88	-0.165
277.25	-0.593
277.61	-0.765
277.97	-0.663
278.33	-0.632
278.69	-0.971
279.06	-0.969
279.42	-1.052
279.78	-0.965
280.14	-1.058
280.50	-0.957
280.87	-0.894
281.23	-0.778
281.59	-0.615
281.95	-0.485
282.31	-0.498
282.68	-0.505
283.04	-0.571
283.40	-0.491
283.76	-0.462
284.12	-0.333
284.48	-0.303
284.85	-0.271
285.21	-0.326
285.57	-0.485
285.93	-0.575
286.29	-0.631
286.65	-0.473
287.02	-0.016
287.38	-0.073
287.74	-0.153
288.10	-0.301
288.46	-0.463
288.82	-0.634
289.18	-0.580
289.54	-0.513
289.91	-0.484
290.27	-0.506
290.63	-0.308
290.99	-0.506
291.35	-0.284
291.71	-0.158
292.07	-0.214
292.43	-0.200
292.79	-0.090
293.16	-0.174
293.52	0.027
293.88	0.070
294.24	0.203
294.60	0.105
294.96	0.031
295.32	-0.087
295.68	-0.102
296.04	-0.092
296.40	0.059
296.76	0.104
297.12	0.198
297.49	-0.057
297.85	-0.119
298.21	-0.287
298.57	-0.511
298.93	-0.469
299.29	-0.548
299.65	-0.487
300.01	-0.410
300.37	-0.515
300.73	-0.410
301.09	-0.375
301.45	-0.182
301.81	-0.210
302.17	-0.203
302.53	-0.184
302.89	-0.293
303.25	-0.298
303.61	-0.370
303.97	-0.575
304.33	-0.429
304.69	-0.501
305.05	-0.603
305.41	-0.587
305.77	-0.493
306.13	-0.495
306.49	-0.449
306.85	-0.443
307.21	-0.358
307.57	-0.313
307.93	-0.137
308.29	-0.077
308.65	-0.077
309.01	-0.138
309.37	-0.184
309.73	-0.220
310.09	-0.045
310.45	0.025
310.81	0.081
311.17	0.060
311.53	0.024
311.89	0.050
312.25	-0.042
312.61	-0.097
312.96	0.057
313.32	0.122
313.68	0.084
314.04	-0.108
314.40	-0.064
314.76	-0.154
315.12	-0.194
315.48	-0.160
315.84	-0.193
316.20	-0.307
316.56	-0.379
316.92	-0.493
317.27	-0.596
317.63	-0.622
317.99	-0.617
318.35	-0.618
318.71	-0.572
319.07	-0.561
319.43	-0.595
319.79	-0.520
320.15	-0.485
320.50	-0.347
320.86	-0.255
321.22	-0.169
321.58	-0.087
321.94	-0.096
322.30	-0.147
322.66	-0.121
323.01	-0.143
323.37	-0.233
323.73	-0.347
324.09	-0.445
324.45	-0.395
324.81	-0.524
325.17	-0.508
325.52	-0.495
325.88	-0.444
326.24	-0.353
326.60	-0.323
326.96	-0.243
327.31	-0.203
327.67	-0.325
328.03	-0.257
328.39	-0.416
328.75	-0.283
329.11	-0.318
329.46	-0.329
329.82	-0.326
330.18	-0.357
330.54	-0.469
330.90	-0.503
331.25	-0.472
331.61	-0.322
331.97	-0.237
332.33	-0.125
332.68	-0.123
333.04	-0.137
333.40	-0.223
333.76	-0.310
334.11	-0.402
334.47	-0.357
334.83	-0.458
335.19	-0.446
335.54	-0.433
335.90	-0.479
336.26	-0.505
336.62	-0.628
336.97	-0.700
337.33	-0.665
337.69	-0.697
338.05	-0.759
338.40	-0.813
338.76	-0.727
339.12	-0.738
339.48	-0.798
339.83	-0.833
340.19	-0.856
340.55	-0.767
340.90	-0.721
341.26	-0.726
341.62	-0.662
341.97	-0.638
342.33	-0.580
342.69	-0.612
343.04	-0.639
343.40	-0.729
343.76	-0.753
344.12	-0.761
344.47	-0.724
344.83	-0.694
345.19	-0.649
345.54	-0.623
345.90	-0.579
346.26	-0.587
346.61	-0.522
346.97	-0.543
347.32	-0.442
347.68	-0.397
348.04	-0.381
348.39	-0.507
348.75	-0.482
349.11	-0.520
349.46	-0.559
349.82	-0.523
350.18	-0.492
350.53	-0.493
350.89	-0.421
351.24	-0.429
351.60	-0.421
351.96	-0.430
352.31	-0.371
352.67	-0.388
353.02	-0.410
353.38	-0.380
353.74	-0.407
354.09	-0.529
354.45	-0.530
354.80	-0.554
355.16	-0.502
355.52	-0.518
355.87	-0.563
356.23	-0.545
356.58	-0.513
356.94	-0.480
357.29	-0.460
357.65	-0.417
358.00	-0.330
358.36	-0.319
358.72	-0.314
359.07	-0.319
359.43	-0.283
359.78	-0.200
360.14	-0.183
360.49	-0.252
360.85	-0.230
361.20	-0.256
361.56	-0.278
361.91	-0.299
362.27	-0.306
362.62	-0.299
362.98	-0.294
363.33	-0.328
363.69	-0.381
364.04	-0.379
364.40	-0.331
364.75	-0.382
365.11	-0.351
365.46	-0.370
365.82	-0.305
366.17	-0.365
366.53	-0.372
366.88	-0.421
367.24	-0.413
367.59	-0.431
367.95	-0.411
368.30	-0.441
368.66	-0.395
369.01	-0.465
369.37	-0.475
369.72	-0.469
370.08	-0.397
370.43	-0.410
370.78	-0.373
371.14	-0.382
371.49	-0.308
371.85	-0.356
372.20	-0.299
372.56	-0.322
372.91	-0.285
373.26	-0.255
373.62	-0.322
373.97	-0.299
374.33	-0.260
374.68	-0.257
375.03	-0.234
375.39	-0.306
375.74	-0.304
376.10	-0.334
376.45	-0.306
376.80	-0.255
377.16	-0.267
377.51	-0.207
377.87	-0.194
378.22	-0.243
378.57	-0.234
378.93	-0.203
379.28	-0.142
379.63	-0.117
379.99	-0.075
380.34	-0.082
380.70	-0.098
381.05	-0.069
381.40	-0.108
381.76	-0.128
382.11	-0.086
382.46	-0.050
382.82	-0.054
383.17	-0.057
383.52	-0.035
383.88	-0.065
384.23	-0.060
384.58	-0.064
384.94	-0.075
385.29	-0.037
385.64	-0.023
385.99	-0.005
386.35	-0.032
386.70	-0.024
387.05	-0.064
387.41	-0.082
387.76	-0.093
388.11	-0.116
388.47	-0.125
388.82	-0.110
389.17	-0.100
389.52	-0.130
389.88	-0.118
390.23	-0.110
390.58	-0.110
390.93	-0.059
391.29	-0.024
391.64	-0.003
391.99	0.049
392.34	0.058
392.70	0.080
393.05	0.069
393.40	0.089
393.75	0.064
394.11	0.070
394.46	0.051
394.81	0.048
395.16	-0.002
395.52	0.002
395.87	-0.019
396.22	0.025
396.57	-0.010
396.92	-0.010
397.28	-0.027
397.63	-0.030
397.98	-0.047
398.33	-0.040
398.68	-0.052
399.04	-0.038
399.39	-0.071
399.74	-0.092
400.09	-0.118
400.44	-0.085
400.80	-0.076
401.15	-0.057
401.50	-0.044
401.85	0.000
402.20	0.012
402.55	0.035
402.90	0.019
403.26	0.072
403.61	0.096
403.96	0.112
404.31	0.108
404.66	0.114
405.01	0.109
405.36	0.136
405.72	0.112
406.07	0.117
406.42	0.106
406.77	0.135
407.12	0.128
407.47	0.154
407.82	0.152
408.17	0.149
408.53	0.157
408.88	0.173
409.23	0.152
409.58	0.148
409.93	0.161
410.28	0.163
410.63	0.160
410.98	0.165
411.33	0.153
411.68	0.179
412.03	0.218
412.38	0.215
412.73	0.241
413.09	0.275
413.44	0.324
413.79	0.357
414.14	0.400
414.49	0.460
414.84	0.496
415.19	0.530
415.54	0.562
415.89	0.577
416.24	0.631
416.59	0.652
416.94	0.675
417.29	0.693
417.64	0.698
417.99	0.719
418.34	0.731
418.69	0.750
419.04	0.760
419.39	0.769
419.74	0.776
420.09	0.774
420.44	0.787
420.79	0.794
421.14	0.805
421.49	0.822
421.84	0.820
422.19	0.829
422.54	0.822
422.89	0.828
423.24	0.822
423.59	0.823
423.94	0.813
424.29	0.808
424.64	0.809
424.99	0.792
425.34	0.777
425.68	0.769
426.03	0.734
426.38	0.715
426.73	0.707
427.08	0.695
427.43	0.698
427.78	0.712
428.13	0.704
428.48	0.698
428.83	0.704
429.18	0.706
429.53	0.703
429.87	0.714
430.22	0.721
430.57	0.729
430.92	0.731
431.27	0.736
431.62	0.727
431.97	0.728
432.32	0.723
432.67	0.712
433.01	0.704
433.36	0.708
433.71	0.687
434.06	0.681
434.41	0.662
434.76	0.684
435.11	0.680
435.45	0.693
435.80	0.695
436.15	0.722
436.50	0.745
436.85	0.766
437.20	0.769
437.54	0.789
437.89	0.810
438.24	0.829
438.59	0.814
438.94	0.809
439.29	0.788
439.63	0.802
439.98	0.788
440.33	0.775
440.68	0.774
441.03	0.797
441.37	0.826
441.72	0.838
442.07	0.847
442.42	0.872
442.76	0.899
443.11	0.923
443.46	0.935
443.81	0.955
444.16	0.982
444.50	0.996
444.85	0.988
445.20	0.980
445.55	0.985
445.89	0.995
446.24	0.990
446.59	0.980
446.94	0.978
447.28	0.978
447.63	0.962
447.98	0.953
448.32	0.943
448.67	0.955
449.02	0.949
449.37	0.932
449.71	0.943
450.06	0.951
450.41	0.957
450.75	0.968
451.10	0.968
451.45	0.961
451.79	0.950
452.14	0.953
452.49	0.950
452.84	0.957
453.18	0.965
453.53	0.951
453.88	0.949
454.22	0.965
454.57	0.981
454.92	0.989
455.26	1.026
455.61	1.070
455.95	1.112
456.30	1.146
456.65	1.183
456.99	1.202
457.34	1.218
457.69	1.246
458.03	1.255
458.38	1.273
458.73	1.281
459.07	1.269
459.42	1.239
459.76	1.200
460.11	1.157
460.46	1.124
460.80	1.107
461.15	1.094
461.49	1.059
461.84	1.046
462.19	1.004
462.53	0.995
462.88	0.997
463.22	1.005
463.57	0.994
463.91	1.010
464.26	1.028
464.61	1.033
464.95	1.014
465.30	1.011
465.64	1.020
465.99	1.038
466.33	1.045
466.68	1.044
467.02	1.037
467.37	1.050
467.71	1.045
468.06	1.036
468.41	1.018
468.75	1.030
469.10	1.038
469.44	1.015
469.79	0.994
470.13	0.954
470.48	0.949
470.82	0.942
471.17	0.952
471.51	0.941
471.86	0.925
472.20	0.925
472.55	0.913
472.89	0.897
473.23	0.885
473.58	0.879
473.92	0.881
474.27	0.870
474.61	0.851
474.96	0.845
475.30	0.863
475.65	0.854
475.99	0.862
476.34	0.863
476.68	0.869
477.02	0.882
477.37	0.882
477.71	0.925
478.06	0.963
478.40	1.044
478.75	1.108
479.09	1.185
479.43	1.280
479.78	1.357
480.12	1.432
480.47	1.509
480.81	1.579
481.15	1.660
481.50	1.723
481.84	1.790
482.19	1.848
482.53	1.900
482.87	1.931
483.22	1.927
483.56	1.906
483.90	1.877
484.25	1.834
484.59	1.791
484.94	1.741
485.28	1.695
485.62	1.643
485.97	1.584
486.31	1.535
486.65	1.495
487.00	1.483
487.34	1.483
487.68	1.480
488.03	1.482
488.37	1.485
488.71	1.491
489.06	1.483
489.40	1.486
489.74	1.483
490.09	1.476
490.43	1.463
490.77	1.447
491.11	1.425
491.46	1.412
491.80	1.388
492.14	1.361
492.49	1.346
492.83	1.326
493.17	1.292
493.51	1.275
493.86	1.266
494.20	1.263
494.54	1.255
494.88	1.281
495.23	1.306
495.57	1.336
495.91	1.375
496.25	1.398
496.60	1.420
496.94	1.450
497.28	1.467
497.62	1.472
497.97	1.476
498.31	1.510
498.65	1.521
498.99	1.532
499.33	1.561
499.68	1.573
500.02	1.602
500.36	1.642
500.70	1.674
501.04	1.698
501.39	1.732
501.73	1.782
502.07	1.819
502.41	1.863
502.75	1.932
503.09	1.989
503.44	2.050
503.78	2.085
504.12	2.115
504.46	2.162
504.80	2.230
505.14	2.298
505.49	2.357
505.83	2.404
506.17	2.461
506.51	2.488
506.85	2.536
507.19	2.583
507.53	2.627
507.87	2.698
508.22	2.729
508.56	2.758
508.90	2.781
509.24	2.817
509.58	2.850
509.92	2.881
510.26	2.917
510.60	2.944
510.94	2.974
511.28	3.003
511.63	3.020
511.97	3.059
512.31	3.109
512.65	3.159
512.99	3.210
513.33	3.302
513.67	3.361
514.01	3.444
514.35	3.509
514.69	3.593
515.03	3.667
515.37	3.749
515.71	3.816
516.05	3.868
516.39	3.912
516.73	3.958
517.07	3.971
517.41	3.982
517.75	3.979
518.09	3.992
518.43	3.983
518.77	3.968
519.11	3.937
519.45	3.925
519.79	3.916
520.13	3.903
520.47	3.884
520.81	3.881
521.15	3.928
521.49	3.970
521.83	4.010
522.17	4.037
522.51	4.094
522.85	4.167
523.19	4.233
523.53	4.316
523.87	4.416
524.21	4.507
524.55	4.583
524.89	4.651
525.23	4.715
525.57	4.766
525.91	4.822
526.25	4.861
526.58	4.901
526.92	4.928
527.26	4.943
527.60	4.934
527.94	4.916
528.28	4.893
528.62	4.853
528.96	4.805
529.30	4.766
529.64	4.719
529.97	4.667
530.31	4.596
530.65	4.536
530.99	4.478
531.33	4.442
531.67	4.411
532.01	4.385
532.35	4.358
532.68	4.343
533.02	4.310
533.36	4.279
533.70	4.250
534.04	4.220
534.38	4.194
534.71	4.164
535.05	4.113
535.39	4.073
535.73	4.031
536.07	4.000
536.41	3.962
536.74	3.941
537.08	3.936
537.42	3.952
537.76	3.967
538.10	3.975
538.43	3.988
538.77	4.011
539.11	4.023
539.45	4.046
539.79	4.068
540.12	4.078
540.46	4.078
540.80	4.063
541.14	4.033
541.47	3.996
541.81	3.972
542.15	3.922
542.49	3.870
542.82	3.819
543.16	3.761
543.50	3.696
543.84	3.645
544.17	3.582
544.51	3.540
544.85	3.488
545.18	3.466
545.52	3.416
545.86	3.393
546.20	3.362
546.53	3.330
546.87	3.285
547.21	3.229
547.54	3.163
547.88	3.134
548.22	3.078
548.55	3.049
548.89	3.006
549.23	2.977
549.56	2.947
549.90	2.940
550.24	2.922
550.57	2.917
550.91	2.904
551.25	2.917
551.58	2.906
551.92	2.916
552.26	2.902
552.59	2.899
552.93	2.877
553.27	2.882
553.60	2.865
553.94	2.846
554.27	2.835
554.61	2.846
554.95	2.828
555.28	2.825
555.62	2.813
555.95	2.828
556.29	2.835
556.63	2.844
556.96	2.819
557.30	2.822
557.63	2.818
557.97	2.803
558.31	2.793
558.64	2.803
558.98	2.818
559.31	2.839
559.65	2.841
559.98	2.841
560.32	2.841
560.65	2.851
560.99	2.863
561.33	2.906
561.66	2.939
562.00	2.966
562.33	2.979
562.67	2.983
563.00	3.007
563.34	3.034
563.67	3.065
564.01	3.106
564.34	3.138
564.68	3.170
565.01	3.183
565.35	3.197
565.68	3.218
566.02	3.245
566.35	3.267
566.69	3.267
567.02	3.294
567.36	3.306
567.69	3.329
568.03	3.365
568.36	3.383
568.69	3.389
569.03	3.415
569.36	3.446
569.70	3.468
570.03	3.509
570.37	3.539
570.70	3.565
571.04	3.583
571.37	3.583
571.70	3.592
572.04	3.621
572.37	3.652
572.71	3.671
573.04	3.677
573.37	3.714
573.71	3.722
574.04	3.735
574.38	3.723
574.71	3.748
575.04	3.766
575.38	3.779
575.71	3.785
576.05	3.791
576.38	3.811
576.71	3.831
577.05	3.830
577.38	3.854
577.71	3.885
578.05	3.918
578.38	3.937
578.71	3.976
579.05	3.993
579.38	4.004
579.71	4.052
580.05	4.071
580.38	4.094
580.71	4.117
581.05	4.152
581.38	4.198
581.71	4.269
582.05	4.315
582.38	4.366
582.71	4.410
583.04	4.487
583.38	4.514
583.71	4.574
584.04	4.661
584.38	4.714
584.71	4.797
585.04	4.856
585.37	4.889
585.71	4.963
586.04	5.025
586.37	5.116
586.70	5.176
587.04	5.269
587.37	5.353
587.70	5.380
588.03	5.448
588.37	5.478
588.70	5.526
589.03	5.598
589.36	5.639
589.69	5.672
590.03	5.714
590.36	5.736
590.69	5.753
591.02	5.753
591.35	5.819
591.69	5.868
592.02	5.943
592.35	6.015
592.68	6.084
593.01	6.114
593.35	6.192
593.68	6.247
594.01	6.313
594.34	6.369
594.67	6.434
595.00	6.464
595.34	6.504
595.67	6.505
596.00	6.514
596.33	6.488
596.66	6.521
596.99	6.523
597.32	6.525
597.65	6.518
597.99	6.521
598.32	6.526
598.65	6.554
598.98	6.564
599.31	6.624
599.64	6.669
599.97	6.741
600.30	6.785
600.63	6.839
600.96	6.893
601.30	6.959
601.63	7.003
601.96	7.062
602.29	7.098
602.62	7.116
602.95	7.129
603.28	7.164
603.61	7.141
603.94	7.133
604.27	7.143
604.60	7.136
604.93	7.131
605.26	7.148
605.59	7.156
605.92	7.146
606.25	7.161
606.58	7.162
606.91	7.128
607.24	7.178
607.57	7.196
607.90	7.175
608.23	7.139
608.56	7.131
608.89	7.115
609.22	7.077
609.55	7.058
609.88	7.039
610.21	7.000
610.54	6.965
610.87	6.887
611.20	6.856
611.53	6.815
611.86	6.807
612.19	6.757
612.52	6.710
612.85	6.680
613.18	6.670
613.51	6.622
613.84	6.603
614.17	6.602
614.49	6.637
614.82	6.574
615.15	6.565
615.48	6.563
615.81	6.556
616.14	6.518
616.47	6.482
616.80	6.414
617.13	6.415
617.46	6.363
617.78	6.350
618.11	6.293
618.44	6.306
618.77	6.258
619.10	6.229
619.43	6.223
619.76	6.222
620.09	6.230
620.41	6.248
620.74	6.256
621.07	6.316
621.40	6.322
621.73	6.338
622.06	6.389
622.38	6.441
622.71	6.477
623.04	6.539
623.37	6.588
623.70	6.621
624.02	6.687
624.35	6.745
624.68	6.773
625.01	6.818
625.34	6.861
625.66	6.875
625.99	6.918
626.32	6.962
626.65	6.957
626.98	6.980
627.30	6.998
627.63	6.981
627.96	6.942
628.29	6.922
628.61	6.891
628.94	6.885
629.27	6.833
629.60	6.791
629.92	6.746
630.25	6.714
630.58	6.689
630.91	6.674
631.23	6.655
631.56	6.652
631.89	6.614
632.21	6.641
632.54	6.611
632.87	6.613
633.19	6.584
633.52	6.541
633.85	6.519
634.18	6.458
634.50	6.389
634.83	6.322
635.16	6.248
635.48	6.183
635.81	6.037
636.14	5.954
636.46	5.851
636.79	5.753
637.11	5.655
637.44	5.518
637.77	5.417
638.09	5.326
638.42	5.214
638.75	5.105
639.07	5.036
639.40	4.941
639.73	4.817
640.05	4.737
640.38	4.678
640.70	4.571
641.03	4.477
641.36	4.377
641.68	4.287
642.01	4.221
642.33	4.150
642.66	4.044
642.98	3.986
643.31	3.937
643.64	3.871
643.96	3.794
644.29	3.782
644.61	3.760
644.94	3.699
645.26	3.666
645.59	3.642
645.91	3.602
646.24	3.591
646.56	3.560
646.89	3.528
647.22	3.470
647.54	3.408
647.87	3.357
648.19	3.301
648.52	3.285
648.84	3.220
649.17	3.149
