OOIBase32 Version 2.0.0.6 Data File
++++++++++++++++++++++++++++++++++++
Date: 01-23-2012, 23:16:33
User: Valued Ocean Optics Customer
Spectrometer Serial Number: USB2E2917
Spectrometer Channel: Master
Integration Time (msec): 5
Spectra Averaged: 10
Boxcar Smoothing: 5
Correct for Electrical Dark: Enabled
Time Normalized: Disabled
Dual-beam Reference: Disabled
Reference Channel: Master
Temperature: Not acquired
Spectrometer Type: S2000
ADC Type: USB2000
Number of Pixels in File: 2048
Graph Title: 
>>>>>Begin Spectral Data<<<<<
180.30	0.000
180.67	0.000
181.03	134.024
181.40	601.987
181.77	-8502.294
182.14	7.861
182.51	-763.831
182.88	121.393
183.25	40.783
183.62	135.967
183.99	315.999
184.36	-106.730
184.73	320.093
185.10	20.960
185.46	25.506
185.83	-374.514
186.20	498.136
186.57	115.478
186.94	104.530
187.31	44.793
187.68	193.838
188.05	51.278
188.42	67.743
188.78	109.754
189.15	415.414
189.52	-58.990
189.89	27.816
190.26	43.283
190.63	33.258
191.00	36.592
191.37	29.217
191.73	35.740
192.10	20.397
192.47	19.779
192.84	20.408
193.21	33.992
193.58	32.278
193.94	32.067
194.31	24.558
194.68	11.901
195.05	1.071
195.42	9.713
195.79	12.342
196.15	10.948
196.52	1.828
196.89	-9.683
197.26	-50.648
197.63	-42.304
198.00	-38.152
198.36	-34.228
198.73	-58.218
199.10	-46.488
199.47	-43.353
199.84	-45.617
200.20	-29.877
200.57	-20.713
200.94	-22.817
201.31	-20.002
201.68	-32.886
202.04	-41.009
202.41	-46.476
202.78	-47.407
203.15	-48.460
203.51	-53.137
203.88	-56.498
204.25	-62.097
204.62	-79.690
204.98	-95.246
205.35	-92.218
205.72	-84.686
206.09	-66.491
206.46	-106.177
206.82	-84.403
207.19	-99.708
207.56	-174.773
207.92	-161.847
208.29	-160.844
208.66	-96.442
209.03	-88.410
209.39	-67.792
209.76	-65.914
210.13	-138.757
210.50	-92.604
210.86	-81.664
211.23	-88.098
211.60	-36.702
211.96	-34.355
212.33	-26.900
212.70	-58.264
213.07	-56.244
213.43	-99.473
213.80	-103.915
214.17	-55.433
214.53	-49.712
214.90	-48.574
215.27	-38.147
215.63	-51.710
216.00	-50.016
216.37	-50.858
216.74	-54.440
217.10	-46.536
217.47	-33.555
217.84	-29.155
218.20	-29.629
218.57	-25.401
218.94	-23.976
219.30	-30.433
219.67	-36.486
220.04	-23.934
220.40	-22.916
220.77	-15.413
221.13	-9.254
221.50	-4.638
221.87	-4.077
222.23	-8.932
222.60	-15.676
222.97	-16.302
223.33	-7.682
223.70	-3.144
224.07	-7.429
224.43	-10.097
224.80	-9.040
225.16	-12.292
225.53	-13.974
225.90	-13.375
226.26	-9.570
226.63	-5.169
226.99	-2.419
227.36	-2.887
227.73	-3.040
228.09	-3.665
228.46	-0.344
228.82	-0.435
229.19	0.299
229.56	0.046
229.92	1.414
230.29	1.502
230.65	0.061
231.02	-2.632
231.38	-4.916
231.75	-5.036
232.12	-6.209
232.48	-10.906
232.85	-11.263
233.21	-11.973
233.58	-12.915
233.94	-14.471
234.31	-15.369
234.68	-14.688
235.04	-13.186
235.41	-10.402
235.77	-8.413
236.14	-6.493
236.50	-3.243
236.87	-2.592
237.23	-1.620
237.60	-1.036
237.96	0.146
238.33	0.175
238.69	-0.378
239.06	-0.638
239.42	-0.975
239.79	-2.374
240.15	-2.614
240.52	-2.769
240.88	-2.416
241.25	-2.643
241.61	-2.352
241.98	-2.763
242.34	-2.721
242.71	-2.309
243.07	-1.751
243.44	-1.679
243.80	-1.127
244.17	-0.958
244.53	-1.433
244.90	-1.439
245.26	-1.231
245.63	-1.404
245.99	-1.395
246.36	-1.437
246.72	-1.405
247.09	-1.942
247.45	-2.043
247.81	-1.823
248.18	-2.085
248.54	-1.721
248.91	-2.113
249.27	-2.258
249.64	-1.804
250.00	-1.639
250.36	-1.904
250.73	-2.149
251.09	-1.742
251.46	-1.527
251.82	-2.255
252.19	-2.128
252.55	-2.580
252.91	-2.059
253.28	-2.028
253.64	-3.013
254.01	-2.842
254.37	-2.219
254.73	-1.500
255.10	-1.399
255.46	-0.786
255.83	-0.404
256.19	-0.393
256.55	-0.316
256.92	-0.261
257.28	-0.229
257.65	0.128
258.01	0.173
258.37	0.098
258.74	-0.044
259.10	-0.163
259.46	-0.544
259.83	-0.651
260.19	-0.517
260.55	-0.449
260.92	-0.611
261.28	-0.664
261.64	-0.584
262.01	-0.632
262.37	-0.679
262.73	-0.827
263.10	-0.781
263.46	-0.652
263.82	-0.783
264.19	-1.135
264.55	-1.515
264.91	-1.729
265.28	-1.890
265.64	-1.986
266.00	-2.111
266.37	-1.967
266.73	-1.786
267.09	-1.783
267.46	-1.770
267.82	-1.789
268.18	-1.453
268.54	-1.192
268.91	-0.995
269.27	-0.936
269.63	-0.770
270.00	-0.671
270.36	-0.734
270.72	-0.783
271.08	-0.834
271.45	-0.969
271.81	-0.875
272.17	-1.123
272.53	-1.262
272.90	-1.224
273.26	-0.981
273.62	-1.121
273.98	-1.233
274.35	-1.290
274.71	-1.177
275.07	-0.710
275.43	-0.561
275.80	-0.573
276.16	-0.380
276.52	-0.222
276.88	-0.325
277.25	-0.563
277.61	-0.571
277.97	-0.535
278.33	-0.468
278.69	-0.774
279.06	-1.046
279.42	-1.060
279.78	-0.971
280.14	-0.877
280.50	-0.726
280.87	-0.619
281.23	-0.521
281.59	-0.612
281.95	-0.710
282.31	-0.754
282.68	-0.790
283.04	-0.956
283.40	-0.728
283.76	-0.611
284.12	-0.662
284.48	-0.731
284.85	-0.704
285.21	-0.743
285.57	-0.721
285.93	-0.564
286.29	-0.502
286.65	-0.370
287.02	0.055
287.38	-0.113
287.74	-0.295
288.10	-0.488
288.46	-0.494
288.82	-0.675
289.18	-0.603
289.54	-0.591
289.91	-0.682
290.27	-0.789
290.63	-0.696
290.99	-0.928
291.35	-0.962
291.71	-0.779
292.07	-0.547
292.43	-0.529
292.79	-0.457
293.16	-0.550
293.52	-0.398
293.88	-0.294
294.24	-0.295
294.60	-0.341
294.96	-0.371
295.32	-0.264
295.68	-0.290
296.04	-0.250
296.40	-0.184
296.76	-0.104
297.12	-0.120
297.49	-0.262
297.85	-0.394
298.21	-0.292
298.57	-0.446
298.93	-0.411
299.29	-0.593
299.65	-0.572
300.01	-0.592
300.37	-0.593
300.73	-0.560
301.09	-0.541
301.45	-0.450
301.81	-0.278
302.17	-0.285
302.53	-0.298
302.89	-0.413
303.25	-0.242
303.61	-0.320
303.97	-0.480
304.33	-0.410
304.69	-0.300
305.05	-0.215
305.41	-0.323
305.77	-0.349
306.13	-0.356
306.49	-0.313
306.85	-0.180
307.21	-0.142
307.57	-0.144
307.93	-0.134
308.29	-0.221
308.65	-0.342
309.01	-0.381
309.37	-0.296
309.73	-0.315
310.09	-0.178
310.45	-0.081
310.81	-0.094
311.17	-0.159
311.53	-0.162
311.89	-0.068
312.25	-0.039
312.61	-0.027
312.96	-0.009
313.32	0.125
313.68	0.131
314.04	-0.028
314.40	-0.074
314.76	-0.184
315.12	-0.269
315.48	-0.203
315.84	-0.236
316.20	-0.299
316.56	-0.338
316.92	-0.401
317.27	-0.638
317.63	-0.678
317.99	-0.715
318.35	-0.748
318.71	-0.645
319.07	-0.540
319.43	-0.598
319.79	-0.499
320.15	-0.464
320.50	-0.333
320.86	-0.330
321.22	-0.279
321.58	-0.317
321.94	-0.346
322.30	-0.434
322.66	-0.444
323.01	-0.605
323.37	-0.674
323.73	-0.729
324.09	-0.853
324.45	-0.880
324.81	-0.904
325.17	-0.855
325.52	-0.795
325.88	-0.737
326.24	-0.578
326.60	-0.639
326.96	-0.561
327.31	-0.548
327.67	-0.623
328.03	-0.517
328.39	-0.526
328.75	-0.431
329.11	-0.396
329.46	-0.390
329.82	-0.361
330.18	-0.413
330.54	-0.384
330.90	-0.387
331.25	-0.378
331.61	-0.217
331.97	-0.159
332.33	-0.193
332.68	-0.235
333.04	-0.278
333.40	-0.383
333.76	-0.419
334.11	-0.434
334.47	-0.355
334.83	-0.404
335.19	-0.407
335.54	-0.469
335.90	-0.557
336.26	-0.591
336.62	-0.630
336.97	-0.685
337.33	-0.718
337.69	-0.686
338.05	-0.712
338.40	-0.839
338.76	-0.806
339.12	-0.746
339.48	-0.805
339.83	-0.775
340.19	-0.755
340.55	-0.658
340.90	-0.630
341.26	-0.535
341.62	-0.597
341.97	-0.628
342.33	-0.586
342.69	-0.545
343.04	-0.537
343.40	-0.559
343.76	-0.648
344.12	-0.633
344.47	-0.589
344.83	-0.559
345.19	-0.577
345.54	-0.551
345.90	-0.464
346.26	-0.412
346.61	-0.425
346.97	-0.423
347.32	-0.406
347.68	-0.338
348.04	-0.387
348.39	-0.547
348.75	-0.597
349.11	-0.608
349.46	-0.636
349.82	-0.706
350.18	-0.762
350.53	-0.781
350.89	-0.838
351.24	-0.895
351.60	-0.890
351.96	-0.832
352.31	-0.805
352.67	-0.741
353.02	-0.762
353.38	-0.733
353.74	-0.670
354.09	-0.672
354.45	-0.588
354.80	-0.560
355.16	-0.478
355.52	-0.475
355.87	-0.539
356.23	-0.497
356.58	-0.503
356.94	-0.440
357.29	-0.395
357.65	-0.398
358.00	-0.396
358.36	-0.464
358.72	-0.481
359.07	-0.473
359.43	-0.453
359.78	-0.371
360.14	-0.328
360.49	-0.340
360.85	-0.359
361.20	-0.411
361.56	-0.429
361.91	-0.418
362.27	-0.414
362.62	-0.354
362.98	-0.356
363.33	-0.418
363.69	-0.506
364.04	-0.474
364.40	-0.496
364.75	-0.562
365.11	-0.567
365.46	-0.599
365.82	-0.572
366.17	-0.538
366.53	-0.563
366.88	-0.565
367.24	-0.526
367.59	-0.547
367.95	-0.595
368.30	-0.586
368.66	-0.522
369.01	-0.521
369.37	-0.474
369.72	-0.482
370.08	-0.458
370.43	-0.492
370.78	-0.513
371.14	-0.510
371.49	-0.431
371.85	-0.436
372.20	-0.432
372.56	-0.428
372.91	-0.410
373.26	-0.399
373.62	-0.434
373.97	-0.464
374.33	-0.462
374.68	-0.427
375.03	-0.402
375.39	-0.422
375.74	-0.457
376.10	-0.450
376.45	-0.461
376.80	-0.443
377.16	-0.487
377.51	-0.461
377.87	-0.433
378.22	-0.424
378.57	-0.441
378.93	-0.438
379.28	-0.406
379.63	-0.398
379.99	-0.400
380.34	-0.372
380.70	-0.371
381.05	-0.313
381.40	-0.334
381.76	-0.350
382.11	-0.327
382.46	-0.287
382.82	-0.272
383.17	-0.296
383.52	-0.279
383.88	-0.260
384.23	-0.246
384.58	-0.245
384.94	-0.277
385.29	-0.218
385.64	-0.191
385.99	-0.167
386.35	-0.163
386.70	-0.161
387.05	-0.166
387.41	-0.145
387.76	-0.131
388.11	-0.142
388.47	-0.130
388.82	-0.085
389.17	-0.093
389.52	-0.094
389.88	-0.097
390.23	-0.118
390.58	-0.112
390.93	-0.078
391.29	-0.060
391.64	-0.040
391.99	-0.005
392.34	0.010
392.70	-0.019
393.05	-0.026
393.40	-0.017
393.75	-0.019
394.11	-0.020
394.46	-0.042
394.81	-0.035
395.16	-0.087
395.52	-0.114
395.87	-0.141
396.22	-0.117
396.57	-0.121
396.92	-0.126
397.28	-0.159
397.63	-0.168
397.98	-0.157
398.33	-0.133
398.68	-0.171
399.04	-0.143
399.39	-0.147
399.74	-0.146
400.09	-0.179
400.44	-0.147
400.80	-0.122
401.15	-0.114
401.50	-0.114
401.85	-0.096
402.20	-0.118
402.55	-0.074
402.90	-0.081
403.26	-0.070
403.61	-0.074
403.96	-0.087
404.31	-0.107
404.66	-0.122
405.01	-0.106
405.36	-0.104
405.72	-0.137
406.07	-0.129
406.42	-0.175
406.77	-0.171
407.12	-0.177
407.47	-0.198
407.82	-0.201
408.17	-0.201
408.53	-0.191
408.88	-0.224
409.23	-0.238
409.58	-0.245
409.93	-0.225
410.28	-0.208
410.63	-0.233
410.98	-0.234
411.33	-0.194
411.68	-0.170
412.03	-0.131
412.38	-0.131
412.73	-0.090
413.09	-0.040
413.44	-0.017
413.79	-0.008
414.14	0.043
414.49	0.107
414.84	0.157
415.19	0.172
415.54	0.202
415.89	0.211
416.24	0.268
416.59	0.288
416.94	0.300
417.29	0.338
417.64	0.340
417.99	0.340
418.34	0.358
418.69	0.359
419.04	0.373
419.39	0.366
419.74	0.366
420.09	0.360
420.44	0.373
420.79	0.375
421.14	0.368
421.49	0.385
421.84	0.387
422.19	0.386
422.54	0.389
422.89	0.382
423.24	0.383
423.59	0.377
423.94	0.340
424.29	0.317
424.64	0.305
424.99	0.288
425.34	0.261
425.68	0.227
426.03	0.197
426.38	0.165
426.73	0.160
427.08	0.144
427.43	0.155
427.78	0.179
428.13	0.173
428.48	0.175
428.83	0.183
429.18	0.190
429.53	0.212
429.87	0.197
430.22	0.195
430.57	0.215
430.92	0.228
431.27	0.227
431.62	0.222
431.97	0.237
432.32	0.220
432.67	0.212
433.01	0.206
433.36	0.188
433.71	0.188
434.06	0.181
434.41	0.142
434.76	0.149
435.11	0.148
435.45	0.147
435.80	0.133
436.15	0.154
436.50	0.170
436.85	0.191
437.20	0.199
437.54	0.208
437.89	0.210
438.24	0.231
438.59	0.216
438.94	0.201
439.29	0.190
439.63	0.200
439.98	0.198
440.33	0.175
440.68	0.171
441.03	0.181
441.37	0.199
441.72	0.216
442.07	0.204
442.42	0.210
442.76	0.243
443.11	0.255
443.46	0.264
443.81	0.275
444.16	0.295
444.50	0.288
444.85	0.284
445.20	0.283
445.55	0.267
445.89	0.270
446.24	0.267
446.59	0.228
446.94	0.214
447.28	0.190
447.63	0.157
447.98	0.142
448.32	0.134
448.67	0.107
449.02	0.079
449.37	0.064
449.71	0.054
450.06	0.042
450.41	0.053
450.75	0.046
451.10	0.050
451.45	0.040
451.79	0.022
452.14	0.009
452.49	0.020
452.84	0.010
453.18	0.005
453.53	-0.006
453.88	-0.003
454.22	-0.006
454.57	0.018
454.92	0.026
455.26	0.065
455.61	0.096
455.95	0.122
456.30	0.131
456.65	0.162
456.99	0.188
457.34	0.212
457.69	0.230
458.03	0.240
458.38	0.241
458.73	0.244
459.07	0.225
459.42	0.193
459.76	0.170
460.11	0.142
460.46	0.102
460.80	0.075
461.15	0.029
461.49	-0.006
461.84	-0.023
462.19	-0.045
462.53	-0.063
462.88	-0.058
463.22	-0.058
463.57	-0.064
463.91	-0.048
464.26	-0.029
464.61	-0.032
464.95	-0.031
465.30	-0.040
465.64	-0.027
465.99	-0.026
466.33	-0.020
466.68	-0.033
467.02	-0.030
467.37	-0.034
467.71	-0.054
468.06	-0.075
468.41	-0.088
468.75	-0.080
469.10	-0.081
469.44	-0.106
469.79	-0.142
470.13	-0.191
470.48	-0.207
470.82	-0.213
471.17	-0.211
471.51	-0.230
471.86	-0.253
472.20	-0.261
472.55	-0.268
472.89	-0.274
473.23	-0.306
473.58	-0.277
473.92	-0.269
474.27	-0.272
474.61	-0.291
474.96	-0.292
475.30	-0.263
475.65	-0.248
475.99	-0.240
476.34	-0.233
476.68	-0.225
477.02	-0.201
477.37	-0.208
477.71	-0.173
478.06	-0.140
478.40	-0.070
478.75	-0.001
479.09	0.066
479.43	0.153
479.78	0.223
480.12	0.279
480.47	0.341
480.81	0.393
481.15	0.444
481.50	0.488
481.84	0.537
482.19	0.573
482.53	0.600
482.87	0.622
483.22	0.620
483.56	0.616
483.90	0.598
484.25	0.571
484.59	0.549
484.94	0.524
485.28	0.497
485.62	0.458
485.97	0.423
486.31	0.395
486.65	0.363
487.00	0.346
487.34	0.329
487.68	0.322
488.03	0.309
488.37	0.305
488.71	0.295
489.06	0.280
489.40	0.278
489.74	0.264
490.09	0.247
490.43	0.228
490.77	0.200
491.11	0.164
491.46	0.130
491.80	0.103
492.14	0.057
492.49	0.030
492.83	-0.005
493.17	-0.047
493.51	-0.083
493.86	-0.107
494.20	-0.127
494.54	-0.145
494.88	-0.133
495.23	-0.120
495.57	-0.103
495.91	-0.075
496.25	-0.059
496.60	-0.049
496.94	-0.039
497.28	-0.029
497.62	-0.038
497.97	-0.034
498.31	-0.017
498.65	-0.016
498.99	-0.024
499.33	-0.012
499.68	-0.006
500.02	0.001
500.36	0.008
500.70	0.021
501.04	0.028
501.39	0.041
501.73	0.059
502.07	0.095
502.41	0.129
502.75	0.175
503.09	0.195
503.44	0.218
503.78	0.248
504.12	0.282
504.46	0.332
504.80	0.393
505.14	0.455
505.49	0.516
505.83	0.551
506.17	0.602
506.51	0.648
506.85	0.706
507.19	0.760
507.53	0.804
507.87	0.869
508.22	0.913
508.56	0.955
508.90	0.988
509.24	1.029
509.58	1.074
509.92	1.121
510.26	1.184
510.60	1.227
510.94	1.281
511.28	1.342
511.63	1.406
511.97	1.485
512.31	1.557
512.65	1.648
512.99	1.741
513.33	1.870
513.67	1.989
514.01	2.123
514.35	2.268
514.69	2.419
515.03	2.565
515.37	2.709
515.71	2.835
516.05	2.969
516.39	3.085
516.73	3.201
517.07	3.296
517.41	3.385
517.75	3.457
518.09	3.537
518.43	3.594
518.77	3.660
519.11	3.724
519.45	3.796
519.79	3.897
520.13	4.008
520.47	4.127
520.81	4.276
521.15	4.460
521.49	4.621
521.83	4.788
522.17	4.973
522.51	5.166
522.85	5.378
523.19	5.611
523.53	5.841
523.87	6.089
524.21	6.319
524.55	6.515
524.89	6.704
525.23	6.903
525.57	7.074
525.91	7.227
526.25	7.360
526.58	7.484
526.92	7.582
527.26	7.671
527.60	7.734
527.94	7.799
528.28	7.855
528.62	7.896
528.96	7.925
529.30	7.961
529.64	8.004
529.97	8.052
530.31	8.090
530.65	8.134
530.99	8.181
531.33	8.240
531.67	8.287
532.01	8.346
532.35	8.385
532.68	8.426
533.02	8.455
533.36	8.465
533.70	8.474
534.04	8.500
534.38	8.522
534.71	8.531
535.05	8.546
535.39	8.578
535.73	8.599
536.07	8.641
536.41	8.681
536.74	8.729
537.08	8.792
537.42	8.869
537.76	8.933
538.10	8.998
538.43	9.074
538.77	9.137
539.11	9.190
539.45	9.249
539.79	9.290
540.12	9.333
540.46	9.359
540.80	9.381
541.14	9.389
541.47	9.363
541.81	9.363
542.15	9.348
542.49	9.319
542.82	9.291
543.16	9.254
543.50	9.235
543.84	9.198
544.17	9.179
544.51	9.168
544.85	9.144
545.18	9.149
545.52	9.138
545.86	9.116
546.20	9.119
546.53	9.105
546.87	9.070
547.21	9.038
547.54	9.014
547.88	8.990
548.22	8.956
548.55	8.924
548.89	8.925
549.23	8.907
549.56	8.905
549.90	8.930
550.24	8.930
550.57	8.952
550.91	8.941
551.25	8.929
551.58	8.911
551.92	8.902
552.26	8.904
552.59	8.889
552.93	8.872
553.27	8.856
553.60	8.795
553.94	8.730
554.27	8.681
554.61	8.658
554.95	8.628
555.28	8.595
555.62	8.539
555.95	8.493
556.29	8.441
556.63	8.370
556.96	8.308
557.30	8.275
557.63	8.241
557.97	8.176
558.31	8.111
558.64	8.043
558.98	7.993
559.31	7.971
559.65	7.906
559.98	7.836
560.32	7.794
560.65	7.712
560.99	7.642
561.33	7.580
561.66	7.526
562.00	7.468
562.33	7.422
562.67	7.365
563.00	7.274
563.34	7.207
563.67	7.134
564.01	7.054
564.34	6.999
564.68	6.927
565.01	6.851
565.35	6.785
565.68	6.700
566.02	6.608
566.35	6.498
566.69	6.399
567.02	6.322
567.36	6.227
567.69	6.148
568.03	6.071
568.36	5.981
568.69	5.888
569.03	5.807
569.36	5.735
569.70	5.654
570.03	5.601
570.37	5.534
570.70	5.462
571.04	5.390
571.37	5.302
571.70	5.223
572.04	5.151
572.37	5.073
572.71	4.991
573.04	4.912
573.37	4.836
573.71	4.749
574.04	4.661
574.38	4.569
574.71	4.502
575.04	4.430
575.38	4.341
575.71	4.249
576.05	4.194
576.38	4.124
576.71	4.036
577.05	3.968
577.38	3.884
577.71	3.809
578.05	3.740
578.38	3.651
578.71	3.593
579.05	3.538
579.38	3.473
579.71	3.409
580.05	3.328
580.38	3.280
580.71	3.227
581.05	3.173
581.38	3.132
581.71	3.090
582.05	3.068
582.38	3.028
582.71	2.965
583.04	2.943
583.38	2.877
583.71	2.855
584.04	2.823
584.38	2.803
584.71	2.811
585.04	2.818
585.37	2.812
585.71	2.806
586.04	2.796
586.37	2.832
586.70	2.824
587.04	2.845
587.37	2.840
587.70	2.828
588.03	2.808
588.37	2.770
588.70	2.734
589.03	2.708
589.36	2.670
589.69	2.632
590.03	2.590
590.36	2.564
590.69	2.504
591.02	2.462
591.35	2.449
591.69	2.417
592.02	2.419
592.35	2.419
592.68	2.402
593.01	2.386
593.35	2.389
593.68	2.367
594.01	2.349
594.34	2.355
594.67	2.362
595.00	2.341
595.34	2.310
595.67	2.254
596.00	2.208
596.33	2.150
596.66	2.114
596.99	2.045
597.32	1.988
597.65	1.934
597.99	1.877
598.32	1.812
598.65	1.751
598.98	1.724
599.31	1.714
599.64	1.715
599.97	1.712
600.30	1.704
600.63	1.730
600.96	1.743
601.30	1.758
601.63	1.782
601.96	1.800
602.29	1.793
602.62	1.793
602.95	1.772
603.28	1.749
603.61	1.729
603.94	1.686
604.27	1.650
604.60	1.600
604.93	1.564
605.26	1.508
605.59	1.456
605.92	1.435
606.25	1.376
606.58	1.345
606.91	1.285
607.24	1.265
607.57	1.247
607.90	1.207
608.23	1.154
608.56	1.093
608.89	1.047
609.22	0.972
609.55	0.908
609.88	0.848
610.21	0.797
610.54	0.724
610.87	0.654
611.20	0.587
611.53	0.520
611.86	0.472
612.19	0.410
612.52	0.351
612.85	0.349
613.18	0.301
613.51	0.244
613.84	0.173
614.17	0.139
614.49	0.110
614.82	0.050
615.15	0.037
615.48	0.043
615.81	0.014
616.14	-0.001
616.47	-0.091
616.80	-0.154
617.13	-0.171
617.46	-0.198
617.78	-0.219
618.11	-0.263
618.44	-0.302
618.77	-0.356
619.10	-0.403
619.43	-0.408
619.76	-0.469
620.09	-0.416
620.41	-0.398
620.74	-0.384
621.07	-0.371
621.40	-0.340
621.73	-0.320
622.06	-0.273
622.38	-0.265
622.71	-0.236
623.04	-0.221
623.37	-0.147
623.70	-0.143
624.02	-0.104
624.35	-0.069
624.68	-0.049
625.01	-0.038
625.34	-0.031
625.66	-0.027
625.99	0.006
626.32	-0.002
626.65	-0.003
626.98	-0.029
627.30	-0.050
627.63	-0.095
627.96	-0.155
628.29	-0.201
628.61	-0.247
628.94	-0.286
629.27	-0.319
629.60	-0.400
629.92	-0.422
630.25	-0.471
630.58	-0.498
630.91	-0.521
631.23	-0.544
631.56	-0.547
631.89	-0.561
632.21	-0.590
632.54	-0.607
632.87	-0.633
633.19	-0.637
633.52	-0.687
633.85	-0.697
634.18	-0.766
634.50	-0.853
634.83	-0.901
635.16	-0.964
635.48	-1.041
635.81	-1.115
636.14	-1.206
636.46	-1.271
636.79	-1.319
637.11	-1.388
637.44	-1.489
637.77	-1.542
638.09	-1.567
638.42	-1.631
638.75	-1.680
639.07	-1.717
639.40	-1.728
639.73	-1.768
640.05	-1.790
640.38	-1.800
640.70	-1.826
641.03	-1.845
641.36	-1.861
641.68	-1.896
642.01	-1.899
642.33	-1.898
642.66	-1.881
