OOIBase32 Version 2.0.0.6 Data File
++++++++++++++++++++++++++++++++++++
Date: 01-23-2012, 23:19:21
User: Valued Ocean Optics Customer
Spectrometer Serial Number: USB2E2917
Spectrometer Channel: Master
Integration Time (msec): 5
Spectra Averaged: 10
Boxcar Smoothing: 5
Correct for Electrical Dark: Enabled
Time Normalized: Disabled
Dual-beam Reference: Disabled
Reference Channel: Master
Temperature: Not acquired
Spectrometer Type: S2000
ADC Type: USB2000
Number of Pixels in File: 2048
Graph Title: 
>>>>>Begin Spectral Data<<<<<
180.30	0.000
180.67	0.000
181.03	-137.193
181.40	604.015
181.77	-9760.627
182.14	59.755
182.51	-645.126
182.88	43.914
183.25	17.235
183.62	51.274
183.99	-86.926
184.36	156.318
184.73	18.984
185.10	-24.043
185.46	-276.771
185.83	-10.808
186.20	1637.331
186.57	239.099
186.94	67.753
187.31	28.198
187.68	47.385
188.05	21.221
188.42	76.215
188.78	221.710
189.15	783.002
189.52	-186.315
189.89	-38.463
190.26	-33.632
190.63	-8.418
191.00	18.762
191.37	19.559
191.73	22.477
192.10	23.977
192.47	19.909
192.84	25.141
193.21	34.707
193.58	26.819
193.94	16.443
194.31	11.441
194.68	3.323
195.05	-10.009
195.42	-7.707
195.79	-11.453
196.15	-20.561
196.52	-17.082
196.89	-47.718
197.26	-71.801
197.63	-50.856
198.00	-28.527
198.36	-27.167
198.73	-58.297
199.10	-63.922
199.47	-64.860
199.84	-61.896
200.20	-50.539
200.57	-41.806
200.94	-24.592
201.31	-11.708
201.68	-15.829
202.04	-29.836
202.41	-26.976
202.78	-34.094
203.15	-28.092
203.51	-8.349
203.88	-11.515
204.25	-23.233
204.62	-32.455
204.98	-54.773
205.35	-69.340
205.72	-82.082
206.09	-68.754
206.46	-133.820
206.82	-68.207
207.19	-64.423
207.56	-139.429
207.92	-131.077
208.29	-126.597
208.66	-81.968
209.03	-61.171
209.39	-24.928
209.76	-15.017
210.13	-32.222
210.50	-15.365
210.86	-15.128
211.23	-18.775
211.60	0.832
211.96	12.059
212.33	17.195
212.70	11.161
213.07	10.603
213.43	-30.150
213.80	-41.918
214.17	-26.470
214.53	-14.099
214.90	-9.383
215.27	-4.781
215.63	-3.147
216.00	-1.155
216.37	-1.440
216.74	-8.883
217.10	-3.994
217.47	2.390
217.84	13.819
218.20	6.044
218.57	7.645
218.94	3.155
219.30	-1.414
219.67	-10.172
220.04	-19.740
220.40	-26.932
220.77	-22.128
221.13	-19.031
221.50	-13.972
221.87	-18.036
222.23	-16.323
222.60	-29.238
222.97	-27.905
223.33	-23.989
223.70	-18.061
224.07	-15.433
224.43	-13.514
224.80	-13.575
225.16	-16.161
225.53	-16.070
225.90	-17.352
226.26	-13.906
226.63	-8.864
226.99	-7.459
227.36	-5.472
227.73	-2.684
228.09	-2.433
228.46	-0.244
228.82	1.317
229.19	2.023
229.56	2.636
229.92	4.827
230.29	5.689
230.65	5.245
231.02	3.931
231.38	0.385
231.75	-2.903
232.12	-3.854
232.48	-6.878
232.85	-8.249
233.21	-8.513
233.58	-10.373
233.94	-11.532
234.31	-11.881
234.68	-11.996
235.04	-11.837
235.41	-9.956
235.77	-8.049
236.14	-6.417
236.50	-4.347
236.87	-4.049
237.23	-2.948
237.60	-2.463
237.96	-1.523
238.33	-2.633
238.69	-2.823
239.06	-2.415
239.42	-2.313
239.79	-2.702
240.15	-2.811
240.52	-2.738
240.88	-2.470
241.25	-2.762
241.61	-2.455
241.98	-2.608
242.34	-2.172
242.71	-1.942
243.07	-1.896
243.44	-1.801
243.80	-1.496
244.17	-1.205
244.53	-1.395
244.90	-1.282
245.26	-1.318
245.63	-1.405
245.99	-1.666
246.36	-1.741
246.72	-1.430
247.09	-1.523
247.45	-1.314
247.81	-1.229
248.18	-1.544
248.54	-1.475
248.91	-1.977
249.27	-1.731
249.64	-1.390
250.00	-0.878
250.36	-0.928
250.73	-1.467
251.09	-1.389
251.46	-1.504
251.82	-1.663
252.19	-1.333
252.55	-1.250
252.91	-0.635
253.28	-0.658
253.64	-1.040
254.01	-1.161
254.37	-0.920
254.73	-0.851
255.10	-0.495
255.46	-0.420
255.83	-0.577
256.19	-0.668
256.55	-0.598
256.92	-0.668
257.28	-0.654
257.65	-0.264
258.01	-0.182
258.37	-0.132
258.74	-0.174
259.10	-0.389
259.46	-0.320
259.83	-0.209
260.19	-0.071
260.55	-0.172
260.92	-0.200
261.28	-0.234
261.64	-0.530
262.01	-0.482
262.37	-0.527
262.73	-0.301
263.10	-0.121
263.46	-0.211
263.82	-0.170
264.19	-0.144
264.55	-0.479
264.91	-0.494
265.28	-0.490
265.64	-0.518
266.00	-0.617
266.37	-0.356
266.73	-0.540
267.09	-0.401
267.46	-0.441
267.82	-0.726
268.18	-0.586
268.54	-0.272
268.91	-0.349
269.27	-0.249
269.63	-0.128
270.00	-0.215
270.36	-0.382
270.72	-0.198
271.08	-0.236
271.45	-0.345
271.81	-0.155
272.17	-0.231
272.53	-0.157
272.90	-0.048
273.26	0.089
273.62	-0.122
273.98	-0.267
274.35	-0.379
274.71	-0.541
275.07	-0.591
275.43	-0.368
275.80	-0.324
276.16	-0.446
276.52	-0.591
276.88	-0.556
277.25	-0.738
277.61	-0.785
277.97	-0.767
278.33	-0.749
278.69	-0.843
279.06	-0.976
279.42	-1.092
279.78	-1.028
280.14	-1.118
280.50	-0.942
280.87	-0.763
281.23	-0.805
281.59	-0.678
281.95	-0.634
282.31	-0.511
282.68	-0.411
283.04	-0.407
283.40	-0.410
283.76	-0.440
284.12	-0.204
284.48	-0.174
284.85	-0.309
285.21	-0.297
285.57	-0.260
285.93	-0.157
286.29	-0.386
286.65	-0.343
287.02	0.054
287.38	-0.001
287.74	-0.158
288.10	-0.486
288.46	-0.625
288.82	-0.655
289.18	-0.631
289.54	-0.598
289.91	-0.499
290.27	-0.121
290.63	-0.042
290.99	-0.189
291.35	-0.062
291.71	0.160
292.07	0.332
292.43	0.405
292.79	0.448
293.16	0.264
293.52	0.261
293.88	0.191
294.24	0.004
294.60	-0.142
294.96	-0.280
295.32	-0.352
295.68	-0.283
296.04	-0.255
296.40	-0.351
296.76	-0.377
297.12	-0.303
297.49	-0.460
297.85	-0.590
298.21	-0.579
298.57	-0.593
298.93	-0.495
299.29	-0.553
299.65	-0.666
300.01	-0.722
300.37	-0.616
300.73	-0.383
301.09	-0.362
301.45	-0.195
301.81	-0.087
302.17	-0.043
302.53	-0.171
302.89	-0.290
303.25	-0.147
303.61	-0.174
303.97	-0.224
304.33	-0.272
304.69	-0.359
305.05	-0.328
305.41	-0.500
305.77	-0.549
306.13	-0.592
306.49	-0.609
306.85	-0.548
307.21	-0.568
307.57	-0.503
307.93	-0.428
308.29	-0.250
308.65	-0.288
309.01	-0.304
309.37	-0.291
309.73	-0.223
310.09	-0.088
310.45	0.028
310.81	-0.060
311.17	-0.082
311.53	-0.074
311.89	-0.144
312.25	-0.246
312.61	-0.266
312.96	-0.272
313.32	-0.146
313.68	-0.272
314.04	-0.407
314.40	-0.334
314.76	-0.280
315.12	-0.256
315.48	-0.247
315.84	-0.210
316.20	-0.220
316.56	-0.293
316.92	-0.245
317.27	-0.337
317.63	-0.230
317.99	-0.334
318.35	-0.317
318.71	-0.287
319.07	-0.263
319.43	-0.270
319.79	-0.228
320.15	-0.240
320.50	-0.097
320.86	-0.063
321.22	-0.030
321.58	-0.038
321.94	-0.035
322.30	-0.094
322.66	-0.163
323.01	-0.246
323.37	-0.312
323.73	-0.361
324.09	-0.410
324.45	-0.441
324.81	-0.558
325.17	-0.596
325.52	-0.614
325.88	-0.648
326.24	-0.609
326.60	-0.608
326.96	-0.522
327.31	-0.495
327.67	-0.584
328.03	-0.522
328.39	-0.568
328.75	-0.544
329.11	-0.432
329.46	-0.391
329.82	-0.275
330.18	-0.387
330.54	-0.393
330.90	-0.480
331.25	-0.464
331.61	-0.253
331.97	-0.274
332.33	-0.299
332.68	-0.299
333.04	-0.342
333.40	-0.430
333.76	-0.502
334.11	-0.418
334.47	-0.312
334.83	-0.294
335.19	-0.379
335.54	-0.435
335.90	-0.468
336.26	-0.465
336.62	-0.414
336.97	-0.485
337.33	-0.507
337.69	-0.475
338.05	-0.544
338.40	-0.602
338.76	-0.532
339.12	-0.446
339.48	-0.413
339.83	-0.389
340.19	-0.374
340.55	-0.417
340.90	-0.444
341.26	-0.387
341.62	-0.385
341.97	-0.384
342.33	-0.337
342.69	-0.382
343.04	-0.437
343.40	-0.670
343.76	-0.740
344.12	-0.767
344.47	-0.719
344.83	-0.617
345.19	-0.620
345.54	-0.620
345.90	-0.558
346.26	-0.593
346.61	-0.513
346.97	-0.472
347.32	-0.364
347.68	-0.368
348.04	-0.357
348.39	-0.429
348.75	-0.410
349.11	-0.421
349.46	-0.447
349.82	-0.487
350.18	-0.491
350.53	-0.575
350.89	-0.656
351.24	-0.623
351.60	-0.538
351.96	-0.521
352.31	-0.508
352.67	-0.596
353.02	-0.637
353.38	-0.629
353.74	-0.596
354.09	-0.631
354.45	-0.582
354.80	-0.487
355.16	-0.436
355.52	-0.420
355.87	-0.470
356.23	-0.471
356.58	-0.414
356.94	-0.351
357.29	-0.345
357.65	-0.350
358.00	-0.274
358.36	-0.343
358.72	-0.394
359.07	-0.395
359.43	-0.399
359.78	-0.349
360.14	-0.344
360.49	-0.395
360.85	-0.404
361.20	-0.384
361.56	-0.416
361.91	-0.492
362.27	-0.465
362.62	-0.417
362.98	-0.430
363.33	-0.503
363.69	-0.534
364.04	-0.464
364.40	-0.413
364.75	-0.436
365.11	-0.463
365.46	-0.498
365.82	-0.450
366.17	-0.455
366.53	-0.462
366.88	-0.491
367.24	-0.404
367.59	-0.447
367.95	-0.499
368.30	-0.537
368.66	-0.537
369.01	-0.544
369.37	-0.502
369.72	-0.509
370.08	-0.465
370.43	-0.484
370.78	-0.472
371.14	-0.537
371.49	-0.469
371.85	-0.476
372.20	-0.468
372.56	-0.443
372.91	-0.421
373.26	-0.401
373.62	-0.441
373.97	-0.442
374.33	-0.462
374.68	-0.467
375.03	-0.430
375.39	-0.451
375.74	-0.438
376.10	-0.421
376.45	-0.406
376.80	-0.400
377.16	-0.425
377.51	-0.384
377.87	-0.411
378.22	-0.443
378.57	-0.435
378.93	-0.423
379.28	-0.376
379.63	-0.399
379.99	-0.380
380.34	-0.384
380.70	-0.369
381.05	-0.337
381.40	-0.336
381.76	-0.282
382.11	-0.239
382.46	-0.204
382.82	-0.183
383.17	-0.214
383.52	-0.202
383.88	-0.205
384.23	-0.188
384.58	-0.198
384.94	-0.234
385.29	-0.226
385.64	-0.237
385.99	-0.199
386.35	-0.209
386.70	-0.251
387.05	-0.270
387.41	-0.254
387.76	-0.283
388.11	-0.313
388.47	-0.320
388.82	-0.278
389.17	-0.281
389.52	-0.265
389.88	-0.248
390.23	-0.237
390.58	-0.206
390.93	-0.169
391.29	-0.159
391.64	-0.103
391.99	-0.060
392.34	-0.023
392.70	-0.023
393.05	-0.039
393.40	-0.048
393.75	-0.066
394.11	-0.103
394.46	-0.115
394.81	-0.111
395.16	-0.142
395.52	-0.185
395.87	-0.190
396.22	-0.168
396.57	-0.175
396.92	-0.173
397.28	-0.195
397.63	-0.219
397.98	-0.191
398.33	-0.182
398.68	-0.227
399.04	-0.197
399.39	-0.168
399.74	-0.179
400.09	-0.213
400.44	-0.194
400.80	-0.172
401.15	-0.166
401.50	-0.143
401.85	-0.125
402.20	-0.141
402.55	-0.073
402.90	-0.061
403.26	-0.050
403.61	-0.036
403.96	-0.033
404.31	-0.016
404.66	0.010
405.01	0.012
405.36	0.027
405.72	0.027
406.07	0.058
406.42	0.020
406.77	0.028
407.12	0.039
407.47	0.061
407.82	0.093
408.17	0.076
408.53	0.041
408.88	0.032
409.23	0.034
409.58	0.019
409.93	0.053
410.28	0.075
410.63	0.049
410.98	0.044
411.33	0.035
411.68	0.037
412.03	0.077
412.38	0.105
412.73	0.160
413.09	0.204
413.44	0.244
413.79	0.253
414.14	0.307
414.49	0.370
414.84	0.416
415.19	0.458
415.54	0.490
415.89	0.521
416.24	0.572
416.59	0.599
416.94	0.614
417.29	0.643
417.64	0.667
417.99	0.684
418.34	0.711
418.69	0.722
419.04	0.727
419.39	0.733
419.74	0.738
420.09	0.751
420.44	0.760
420.79	0.769
421.14	0.782
421.49	0.798
421.84	0.785
422.19	0.793
422.54	0.794
422.89	0.801
423.24	0.806
423.59	0.805
423.94	0.779
424.29	0.780
424.64	0.780
424.99	0.766
425.34	0.729
425.68	0.726
426.03	0.675
426.38	0.668
426.73	0.643
427.08	0.639
427.43	0.636
427.78	0.669
428.13	0.646
428.48	0.638
428.83	0.637
429.18	0.648
429.53	0.651
429.87	0.657
430.22	0.647
430.57	0.671
430.92	0.651
431.27	0.655
431.62	0.638
431.97	0.643
432.32	0.639
432.67	0.635
433.01	0.632
433.36	0.637
433.71	0.635
434.06	0.630
434.41	0.603
434.76	0.625
435.11	0.620
435.45	0.627
435.80	0.650
436.15	0.658
436.50	0.701
436.85	0.738
437.20	0.741
437.54	0.768
437.89	0.785
438.24	0.812
438.59	0.818
438.94	0.825
439.29	0.817
439.63	0.813
439.98	0.827
440.33	0.800
440.68	0.789
441.03	0.810
441.37	0.819
441.72	0.850
442.07	0.866
442.42	0.880
442.76	0.907
443.11	0.939
443.46	0.965
443.81	0.990
444.16	1.018
444.50	1.033
444.85	1.038
445.20	1.051
445.55	1.051
445.89	1.060
446.24	1.075
446.59	1.075
446.94	1.074
447.28	1.069
447.63	1.065
447.98	1.074
448.32	1.076
448.67	1.073
449.02	1.069
449.37	1.063
449.71	1.083
450.06	1.098
450.41	1.108
450.75	1.133
451.10	1.149
451.45	1.140
451.79	1.128
452.14	1.134
452.49	1.166
452.84	1.189
453.18	1.196
453.53	1.192
453.88	1.207
454.22	1.226
454.57	1.248
454.92	1.272
455.26	1.310
455.61	1.365
455.95	1.395
456.30	1.419
456.65	1.438
456.99	1.477
457.34	1.499
457.69	1.517
458.03	1.529
458.38	1.544
458.73	1.554
459.07	1.544
459.42	1.525
459.76	1.512
460.11	1.490
460.46	1.456
460.80	1.442
461.15	1.416
461.49	1.375
461.84	1.366
462.19	1.320
462.53	1.298
462.88	1.295
463.22	1.289
463.57	1.285
463.91	1.288
464.26	1.324
464.61	1.318
464.95	1.315
465.30	1.325
465.64	1.318
465.99	1.349
466.33	1.354
466.68	1.370
467.02	1.369
467.37	1.372
467.71	1.358
468.06	1.356
468.41	1.328
468.75	1.326
469.10	1.314
469.44	1.300
469.79	1.268
470.13	1.232
470.48	1.200
470.82	1.190
471.17	1.180
471.51	1.176
471.86	1.161
472.20	1.170
472.55	1.166
472.89	1.173
473.23	1.163
473.58	1.183
473.92	1.203
474.27	1.204
474.61	1.197
474.96	1.207
475.30	1.218
475.65	1.203
475.99	1.217
476.34	1.222
476.68	1.228
477.02	1.246
477.37	1.234
477.71	1.265
478.06	1.319
478.40	1.386
478.75	1.453
479.09	1.537
479.43	1.635
479.78	1.719
480.12	1.809
480.47	1.901
480.81	1.979
481.15	2.059
481.50	2.137
481.84	2.211
482.19	2.282
482.53	2.348
482.87	2.394
483.22	2.409
483.56	2.392
483.90	2.362
484.25	2.313
484.59	2.269
484.94	2.230
485.28	2.182
485.62	2.128
485.97	2.075
486.31	2.037
486.65	2.006
487.00	2.000
487.34	2.013
487.68	2.037
488.03	2.060
488.37	2.083
488.71	2.103
489.06	2.114
489.40	2.140
489.74	2.156
490.09	2.163
490.43	2.163
490.77	2.156
491.11	2.150
491.46	2.154
491.80	2.165
492.14	2.167
492.49	2.180
492.83	2.199
493.17	2.198
493.51	2.208
493.86	2.218
494.20	2.254
494.54	2.310
494.88	2.374
495.23	2.427
495.57	2.478
495.91	2.565
496.25	2.631
496.60	2.695
496.94	2.759
497.28	2.828
497.62	2.902
497.97	2.974
498.31	3.050
498.65	3.125
498.99	3.207
499.33	3.318
499.68	3.417
500.02	3.521
500.36	3.624
500.70	3.738
501.04	3.849
501.39	3.957
501.73	4.067
502.07	4.192
502.41	4.324
502.75	4.465
503.09	4.596
503.44	4.732
503.78	4.860
504.12	5.018
504.46	5.172
504.80	5.337
505.14	5.520
505.49	5.708
505.83	5.873
506.17	6.049
506.51	6.222
506.85	6.392
507.19	6.561
507.53	6.740
507.87	6.912
508.22	7.103
508.56	7.285
508.90	7.436
509.24	7.612
509.58	7.791
509.92	7.990
510.26	8.181
510.60	8.376
510.94	8.561
511.28	8.756
511.63	8.960
511.97	9.177
512.31	9.392
512.65	9.636
512.99	9.872
513.33	10.157
513.67	10.420
514.01	10.712
514.35	10.976
514.69	11.265
515.03	11.548
515.37	11.814
515.71	12.053
516.05	12.281
516.39	12.515
516.73	12.742
517.07	12.925
517.41	13.123
517.75	13.293
518.09	13.490
518.43	13.662
518.77	13.831
519.11	14.021
519.45	14.196
519.79	14.411
520.13	14.624
520.47	14.857
520.81	15.111
521.15	15.354
521.49	15.599
521.83	15.840
522.17	16.078
522.51	16.338
522.85	16.595
523.19	16.884
523.53	17.191
523.87	17.514
524.21	17.836
524.55	18.136
524.89	18.412
525.23	18.693
525.57	18.926
525.91	19.179
526.25	19.389
526.58	19.593
526.92	19.762
527.26	19.891
527.60	19.984
527.94	20.056
528.28	20.124
528.62	20.180
528.96	20.210
529.30	20.247
529.64	20.252
529.97	20.268
530.31	20.289
530.65	20.316
530.99	20.370
531.33	20.427
531.67	20.481
532.01	20.530
532.35	20.563
532.68	20.613
533.02	20.656
533.36	20.685
533.70	20.689
534.04	20.679
534.38	20.706
534.71	20.713
535.05	20.735
535.39	20.739
535.73	20.753
536.07	20.799
536.41	20.790
536.74	20.818
537.08	20.855
537.42	20.961
537.76	21.041
538.10	21.120
538.43	21.206
538.77	21.306
539.11	21.390
539.45	21.450
539.79	21.503
540.12	21.583
540.46	21.646
540.80	21.675
541.14	21.670
541.47	21.648
541.81	21.614
542.15	21.590
542.49	21.528
542.82	21.484
543.16	21.465
543.50	21.422
543.84	21.367
544.17	21.314
544.51	21.316
544.85	21.310
545.18	21.344
545.52	21.359
545.86	21.364
546.20	21.393
546.53	21.402
546.87	21.382
547.21	21.383
547.54	21.397
547.88	21.405
548.22	21.356
548.55	21.310
548.89	21.283
549.23	21.298
549.56	21.265
549.90	21.246
550.24	21.263
550.57	21.282
550.91	21.267
551.25	21.282
551.58	21.286
551.92	21.316
552.26	21.308
552.59	21.302
552.93	21.280
553.27	21.298
553.60	21.286
553.94	21.270
554.27	21.224
554.61	21.227
554.95	21.169
555.28	21.146
555.62	21.107
555.95	21.120
556.29	21.095
556.63	21.035
556.96	20.981
557.30	20.945
557.63	20.863
557.97	20.828
558.31	20.752
558.64	20.690
558.98	20.620
559.31	20.604
559.65	20.543
559.98	20.485
560.32	20.433
560.65	20.361
560.99	20.260
561.33	20.198
561.66	20.140
562.00	20.074
562.33	20.010
562.67	19.902
563.00	19.796
563.34	19.735
563.67	19.669
564.01	19.592
564.34	19.525
564.68	19.482
565.01	19.430
565.35	19.346
565.68	19.246
566.02	19.145
566.35	19.073
566.69	18.950
567.02	18.836
567.36	18.725
567.69	18.611
568.03	18.499
568.36	18.374
568.69	18.242
569.03	18.141
569.36	18.066
569.70	17.969
570.03	17.898
570.37	17.820
570.70	17.728
571.04	17.627
571.37	17.548
571.70	17.475
572.04	17.383
572.37	17.291
572.71	17.159
573.04	17.082
573.37	17.014
573.71	16.917
574.04	16.842
574.38	16.751
574.71	16.661
575.04	16.573
575.38	16.473
575.71	16.382
576.05	16.319
576.38	16.272
576.71	16.175
577.05	16.092
577.38	16.009
577.71	15.910
578.05	15.821
578.38	15.754
578.71	15.684
579.05	15.634
579.38	15.579
579.71	15.484
580.05	15.399
580.38	15.330
580.71	15.262
581.05	15.201
581.38	15.164
581.71	15.119
582.05	15.100
582.38	15.047
582.71	14.971
583.04	14.931
583.38	14.887
583.71	14.866
584.04	14.807
584.38	14.764
584.71	14.731
585.04	14.690
585.37	14.636
585.71	14.556
586.04	14.495
586.37	14.475
586.70	14.440
587.04	14.420
587.37	14.389
587.70	14.375
588.03	14.343
588.37	14.305
588.70	14.273
589.03	14.245
589.36	14.226
589.69	14.189
590.03	14.132
590.36	14.073
590.69	13.981
591.02	13.934
591.35	13.891
591.69	13.850
592.02	13.827
592.35	13.807
592.68	13.788
593.01	13.744
593.35	13.759
593.68	13.738
594.01	13.740
594.34	13.732
594.67	13.733
595.00	13.709
595.34	13.690
595.67	13.638
596.00	13.601
596.33	13.557
596.66	13.528
596.99	13.472
597.32	13.425
597.65	13.362
597.99	13.325
598.32	13.248
598.65	13.171
598.98	13.090
599.31	13.061
599.64	13.030
599.97	13.002
600.30	12.975
600.63	12.949
600.96	12.942
601.30	12.924
601.63	12.920
601.96	12.907
602.29	12.908
602.62	12.884
602.95	12.856
603.28	12.816
603.61	12.747
603.94	12.679
604.27	12.648
604.60	12.572
604.93	12.527
605.26	12.458
605.59	12.362
605.92	12.298
606.25	12.244
606.58	12.165
606.91	12.059
607.24	12.019
607.57	11.952
607.90	11.868
608.23	11.790
608.56	11.690
608.89	11.616
609.22	11.577
609.55	11.483
609.88	11.375
610.21	11.284
610.54	11.197
610.87	11.090
611.20	10.975
611.53	10.852
611.86	10.779
612.19	10.671
612.52	10.532
612.85	10.441
613.18	10.343
613.51	10.250
613.84	10.148
614.17	10.078
614.49	10.036
614.82	9.965
615.15	9.906
615.48	9.864
615.81	9.797
616.14	9.776
616.47	9.671
616.80	9.580
617.13	9.534
617.46	9.469
617.78	9.394
618.11	9.289
618.44	9.250
618.77	9.175
619.10	9.085
619.43	9.058
619.76	8.977
620.09	8.949
620.41	8.944
620.74	8.929
621.07	8.946
621.40	8.942
621.73	8.936
622.06	8.921
622.38	8.901
622.71	8.883
623.04	8.873
623.37	8.890
623.70	8.871
624.02	8.868
624.35	8.864
624.68	8.847
625.01	8.861
625.34	8.855
625.66	8.848
625.99	8.870
626.32	8.873
626.65	8.886
626.98	8.882
627.30	8.896
627.63	8.869
627.96	8.803
628.29	8.762
628.61	8.713
628.94	8.699
629.27	8.662
629.60	8.604
629.92	8.571
630.25	8.508
630.58	8.451
630.91	8.372
631.23	8.330
631.56	8.330
631.89	8.272
632.21	8.208
632.54	8.156
632.87	8.112
633.19	8.057
633.52	8.008
633.85	7.943
634.18	7.861
634.50	7.780
634.83	7.692
635.16	7.569
635.48	7.460
635.81	7.357
636.14	7.209
636.46	7.093
636.79	6.984
637.11	6.820
637.44	6.640
637.77	6.532
638.09	6.402
638.42	6.259
638.75	6.134
639.07	6.048
639.40	5.920
639.73	5.804
640.05	5.640
640.38	5.529
