OOIBase32 Version 2.0.0.6 Data File
++++++++++++++++++++++++++++++++++++
Date: 01-23-2012, 23:19:59
User: Valued Ocean Optics Customer
Spectrometer Serial Number: USB2E2917
Spectrometer Channel: Master
Integration Time (msec): 5
Spectra Averaged: 10
Boxcar Smoothing: 5
Correct for Electrical Dark: Enabled
Time Normalized: Disabled
Dual-beam Reference: Disabled
Reference Channel: Master
Temperature: Not acquired
Spectrometer Type: S2000
ADC Type: USB2000
Number of Pixels in File: 2048
Graph Title: 
>>>>>Begin Spectral Data<<<<<
180.30	0.000
180.67	0.000
181.03	75.862
181.40	55.254
181.77	4395.107
182.14	107.179
182.51	-336.045
182.88	-29.183
183.25	35.308
183.62	10.342
183.99	175.788
184.36	142.930
184.73	-35.537
185.10	39.806
185.46	190.180
185.83	-17.083
186.20	401.432
186.57	186.210
186.94	43.519
187.31	35.884
187.68	75.552
188.05	39.970
188.42	100.022
188.78	246.893
189.15	650.279
189.52	-154.828
189.89	-50.252
190.26	-21.808
190.63	4.343
191.00	9.442
191.37	8.276
191.73	11.280
192.10	9.233
192.47	13.317
192.84	9.477
193.21	8.569
193.58	-0.661
193.94	-6.151
194.31	-13.143
194.68	-15.450
195.05	-31.120
195.42	-32.896
195.79	-49.271
196.15	-65.543
196.52	-68.420
196.89	-68.745
197.26	-75.215
197.63	-50.736
198.00	-21.630
198.36	-38.334
198.73	-75.567
199.10	-69.706
199.47	-58.315
199.84	-46.320
200.20	-39.345
200.57	-41.709
200.94	-32.004
201.31	-20.573
201.68	-24.888
202.04	-34.454
202.41	-22.747
202.78	-20.907
203.15	-8.269
203.51	-7.201
203.88	-21.115
204.25	-18.300
204.62	-14.406
204.98	-25.626
205.35	-37.635
205.72	-28.824
206.09	-22.106
206.46	-89.069
206.82	-83.964
207.19	-75.590
207.56	-104.907
207.92	-70.068
208.29	-80.240
208.66	-55.642
209.03	-58.736
209.39	-43.486
209.76	-46.489
210.13	-94.940
210.50	-49.644
210.86	-26.065
211.23	-42.198
211.60	-30.162
211.96	-34.935
212.33	-25.047
212.70	-45.568
213.07	-50.592
213.43	-79.736
213.80	-78.424
214.17	-46.477
214.53	-27.482
214.90	-23.362
215.27	-17.383
215.63	-26.354
216.00	-22.374
216.37	-21.906
216.74	-24.151
217.10	-14.952
217.47	-9.660
217.84	-6.185
218.20	-6.919
218.57	-12.441
218.94	-13.099
219.30	-14.157
219.67	-13.507
220.04	-12.302
220.40	-14.932
220.77	-14.167
221.13	-13.142
221.50	-13.141
221.87	-16.556
222.23	-17.232
222.60	-21.988
222.97	-22.848
223.33	-20.922
223.70	-13.664
224.07	-14.222
224.43	-12.576
224.80	-9.156
225.16	-10.467
225.53	-10.227
225.90	-9.745
226.26	-8.150
226.63	-5.338
226.99	-4.200
227.36	-3.390
227.73	-3.094
228.09	-2.811
228.46	-0.954
228.82	1.110
229.19	2.032
229.56	2.670
229.92	3.649
230.29	4.013
230.65	3.208
231.02	1.101
231.38	-1.559
231.75	-3.065
232.12	-5.058
232.48	-8.284
232.85	-11.329
233.21	-11.938
233.58	-14.388
233.94	-14.633
234.31	-15.630
234.68	-16.196
235.04	-14.003
235.41	-11.361
235.77	-10.265
236.14	-8.402
236.50	-6.810
236.87	-5.336
237.23	-4.029
237.60	-3.092
237.96	-2.657
238.33	-2.465
238.69	-1.544
239.06	-1.531
239.42	-1.539
239.79	-2.144
240.15	-2.499
240.52	-1.947
240.88	-1.634
241.25	-1.844
241.61	-1.322
241.98	-1.313
242.34	-1.183
242.71	-1.174
243.07	-1.140
243.44	-1.149
243.80	-0.410
244.17	-0.266
244.53	-0.613
244.90	-0.647
245.26	-0.514
245.63	-0.869
245.99	-1.057
246.36	-1.143
246.72	-1.035
247.09	-1.217
247.45	-1.127
247.81	-1.191
248.18	-0.989
248.54	-0.655
248.91	-1.043
249.27	-0.960
249.64	-0.387
250.00	-0.023
250.36	-0.109
250.73	-0.503
251.09	-0.276
251.46	-0.452
251.82	-0.781
252.19	-0.999
252.55	-1.425
252.91	-1.091
253.28	-1.520
253.64	-2.187
254.01	-2.395
254.37	-1.744
254.73	-0.918
255.10	-0.613
255.46	0.039
255.83	0.102
256.19	0.156
256.55	0.027
256.92	0.065
257.28	0.058
257.65	0.407
258.01	0.520
258.37	0.303
258.74	0.049
259.10	-0.249
259.46	-0.530
259.83	-0.542
260.19	-0.491
260.55	-0.251
260.92	-0.255
261.28	-0.168
261.64	-0.442
262.01	-0.481
262.37	-0.338
262.73	-0.426
263.10	-0.163
263.46	-0.129
263.82	-0.034
264.19	-0.254
264.55	-0.630
264.91	-0.754
265.28	-0.951
265.64	-0.886
266.00	-0.974
266.37	-1.080
266.73	-1.010
267.09	-1.061
267.46	-1.196
267.82	-1.382
268.18	-1.212
268.54	-1.214
268.91	-1.409
269.27	-1.416
269.63	-1.203
270.00	-1.037
270.36	-0.918
270.72	-0.662
271.08	-0.554
271.45	-0.505
271.81	-0.539
272.17	-0.680
272.53	-0.630
272.90	-0.422
273.26	-0.180
273.62	-0.315
273.98	-0.398
274.35	-0.428
274.71	-0.510
275.07	-0.564
275.43	-0.440
275.80	-0.362
276.16	-0.337
276.52	-0.423
276.88	-0.564
277.25	-1.003
277.61	-1.396
277.97	-1.482
278.33	-1.449
278.69	-1.805
279.06	-1.751
279.42	-1.648
279.78	-1.490
280.14	-1.227
280.50	-0.981
280.87	-0.835
281.23	-0.426
281.59	-0.147
281.95	-0.096
282.31	0.047
282.68	0.035
283.04	0.106
283.40	0.111
283.76	0.017
284.12	0.016
284.48	-0.058
284.85	-0.042
285.21	-0.057
285.57	-0.067
285.93	-0.049
286.29	-0.208
286.65	0.034
287.02	0.217
287.38	0.187
287.74	0.085
288.10	-0.026
288.46	0.043
288.82	0.107
289.18	0.017
289.54	0.000
289.91	0.017
290.27	0.019
290.63	0.018
290.99	-0.151
291.35	-0.295
291.71	-0.085
292.07	-0.113
292.43	-0.175
292.79	-0.254
293.16	-0.238
293.52	-0.035
293.88	0.067
294.24	0.186
294.60	0.205
294.96	0.122
295.32	0.262
295.68	0.205
296.04	0.255
296.40	0.310
296.76	0.413
297.12	0.313
297.49	0.104
297.85	-0.143
298.21	-0.304
298.57	-0.435
298.93	-0.345
299.29	-0.439
299.65	-0.425
300.01	-0.509
300.37	-0.469
300.73	-0.484
301.09	-0.329
301.45	-0.104
301.81	0.190
302.17	0.391
302.53	0.327
302.89	0.301
303.25	0.340
303.61	0.254
303.97	0.047
304.33	-0.024
304.69	0.016
305.05	-0.008
305.41	-0.156
305.77	-0.111
306.13	-0.202
306.49	-0.064
306.85	-0.054
307.21	-0.107
307.57	-0.071
307.93	0.081
308.29	0.195
308.65	0.172
309.01	0.175
309.37	0.166
309.73	0.069
310.09	0.152
310.45	0.256
310.81	0.234
311.17	0.174
311.53	0.176
311.89	0.305
312.25	0.243
312.61	0.173
312.96	0.181
313.32	0.215
313.68	0.146
314.04	0.071
314.40	-0.046
314.76	-0.091
315.12	-0.098
315.48	-0.058
315.84	-0.111
316.20	-0.103
316.56	-0.084
316.92	-0.160
317.27	-0.116
317.63	-0.076
317.99	-0.090
318.35	-0.088
318.71	-0.001
319.07	0.125
319.43	0.117
319.79	0.092
320.15	0.139
320.50	0.199
320.86	0.232
321.22	0.147
321.58	0.104
321.94	0.035
322.30	-0.040
322.66	-0.207
323.01	-0.316
323.37	-0.382
323.73	-0.380
324.09	-0.512
324.45	-0.466
324.81	-0.488
325.17	-0.403
325.52	-0.454
325.88	-0.487
326.24	-0.370
326.60	-0.303
326.96	-0.234
327.31	-0.263
327.67	-0.257
328.03	-0.209
328.39	-0.401
328.75	-0.375
329.11	-0.453
329.46	-0.351
329.82	-0.259
330.18	-0.222
330.54	-0.209
330.90	-0.198
331.25	-0.123
331.61	-0.139
331.97	-0.182
332.33	-0.101
332.68	-0.129
333.04	-0.128
333.40	-0.185
333.76	-0.243
334.11	-0.384
334.47	-0.339
334.83	-0.407
335.19	-0.438
335.54	-0.421
335.90	-0.401
336.26	-0.418
336.62	-0.393
336.97	-0.406
337.33	-0.414
337.69	-0.402
338.05	-0.410
338.40	-0.462
338.76	-0.369
339.12	-0.272
339.48	-0.318
339.83	-0.301
340.19	-0.329
340.55	-0.287
340.90	-0.289
341.26	-0.265
341.62	-0.242
341.97	-0.185
342.33	-0.147
342.69	-0.101
343.04	-0.161
343.40	-0.212
343.76	-0.232
344.12	-0.155
344.47	-0.142
344.83	-0.110
345.19	-0.129
345.54	-0.117
345.90	-0.094
346.26	-0.081
346.61	-0.131
346.97	-0.076
347.32	-0.000
347.68	0.027
348.04	0.037
348.39	-0.094
348.75	-0.098
349.11	-0.123
349.46	-0.182
349.82	-0.225
350.18	-0.188
350.53	-0.194
350.89	-0.255
351.24	-0.300
351.60	-0.306
351.96	-0.285
352.31	-0.223
352.67	-0.182
353.02	-0.195
353.38	-0.185
353.74	-0.187
354.09	-0.255
354.45	-0.256
354.80	-0.233
355.16	-0.188
355.52	-0.202
355.87	-0.266
356.23	-0.271
356.58	-0.317
356.94	-0.278
357.29	-0.236
357.65	-0.179
358.00	-0.160
358.36	-0.174
358.72	-0.199
359.07	-0.234
359.43	-0.202
359.78	-0.212
360.14	-0.208
360.49	-0.208
360.85	-0.194
361.20	-0.231
361.56	-0.320
361.91	-0.312
362.27	-0.273
362.62	-0.226
362.98	-0.211
363.33	-0.240
363.69	-0.245
364.04	-0.206
364.40	-0.201
364.75	-0.185
365.11	-0.172
365.46	-0.184
365.82	-0.171
366.17	-0.208
366.53	-0.200
366.88	-0.189
367.24	-0.174
367.59	-0.182
367.95	-0.209
368.30	-0.215
368.66	-0.240
369.01	-0.252
369.37	-0.182
369.72	-0.169
370.08	-0.110
370.43	-0.151
370.78	-0.153
371.14	-0.228
371.49	-0.178
371.85	-0.191
372.20	-0.181
372.56	-0.209
372.91	-0.179
373.26	-0.200
373.62	-0.232
373.97	-0.239
374.33	-0.235
374.68	-0.241
375.03	-0.104
375.39	-0.157
375.74	-0.162
376.10	-0.150
376.45	-0.089
376.80	-0.076
377.16	-0.098
377.51	-0.089
377.87	-0.069
378.22	-0.103
378.57	-0.087
378.93	-0.113
379.28	-0.046
379.63	-0.023
379.99	0.013
380.34	-0.002
380.70	-0.015
381.05	0.023
381.40	0.004
381.76	-0.026
382.11	-0.004
382.46	0.034
382.82	0.022
383.17	-0.037
383.52	-0.059
383.88	-0.106
384.23	-0.093
384.58	-0.077
384.94	-0.088
385.29	-0.034
385.64	-0.044
385.99	-0.022
386.35	-0.034
386.70	-0.043
387.05	-0.056
387.41	-0.055
387.76	-0.068
388.11	-0.068
388.47	-0.090
388.82	-0.084
389.17	-0.107
389.52	-0.088
389.88	-0.080
390.23	-0.129
390.58	-0.123
390.93	-0.076
391.29	-0.050
391.64	-0.001
391.99	0.010
392.34	0.042
392.70	0.044
393.05	0.024
393.40	0.012
393.75	-0.010
394.11	0.024
394.46	-0.010
394.81	-0.031
395.16	-0.073
395.52	-0.125
395.87	-0.164
396.22	-0.155
396.57	-0.185
396.92	-0.211
397.28	-0.239
397.63	-0.268
397.98	-0.302
398.33	-0.306
398.68	-0.296
399.04	-0.266
399.39	-0.274
399.74	-0.277
400.09	-0.348
400.44	-0.327
400.80	-0.283
401.15	-0.296
401.50	-0.266
401.85	-0.249
402.20	-0.242
402.55	-0.224
402.90	-0.255
403.26	-0.238
403.61	-0.253
403.96	-0.230
404.31	-0.249
404.66	-0.261
405.01	-0.269
405.36	-0.281
405.72	-0.280
406.07	-0.293
406.42	-0.333
406.77	-0.315
407.12	-0.320
407.47	-0.296
407.82	-0.285
408.17	-0.280
408.53	-0.297
408.88	-0.291
409.23	-0.287
409.58	-0.321
409.93	-0.294
410.28	-0.281
410.63	-0.313
410.98	-0.304
411.33	-0.303
411.68	-0.293
412.03	-0.272
412.38	-0.289
412.73	-0.270
413.09	-0.243
413.44	-0.192
413.79	-0.183
414.14	-0.160
414.49	-0.101
414.84	-0.076
415.19	-0.033
415.54	0.005
415.89	0.026
416.24	0.085
416.59	0.120
416.94	0.130
417.29	0.153
417.64	0.160
417.99	0.182
418.34	0.200
418.69	0.208
419.04	0.205
419.39	0.200
419.74	0.208
420.09	0.225
420.44	0.236
420.79	0.249
421.14	0.252
421.49	0.278
421.84	0.276
422.19	0.282
422.54	0.282
422.89	0.293
423.24	0.289
423.59	0.278
423.94	0.240
424.29	0.221
424.64	0.214
424.99	0.192
425.34	0.152
425.68	0.151
426.03	0.116
426.38	0.121
426.73	0.095
427.08	0.098
427.43	0.123
427.78	0.175
428.13	0.168
428.48	0.185
428.83	0.196
429.18	0.219
429.53	0.222
429.87	0.242
430.22	0.235
430.57	0.258
430.92	0.262
431.27	0.265
431.62	0.237
431.97	0.254
432.32	0.238
432.67	0.237
433.01	0.219
433.36	0.198
433.71	0.189
434.06	0.181
434.41	0.165
434.76	0.175
435.11	0.171
435.45	0.173
435.80	0.177
436.15	0.180
436.50	0.202
436.85	0.235
437.20	0.252
437.54	0.257
437.89	0.269
438.24	0.281
438.59	0.282
438.94	0.278
439.29	0.269
439.63	0.271
439.98	0.290
440.33	0.273
440.68	0.280
441.03	0.291
441.37	0.306
441.72	0.322
442.07	0.329
442.42	0.343
442.76	0.362
443.11	0.377
443.46	0.391
443.81	0.389
444.16	0.405
444.50	0.391
444.85	0.382
445.20	0.374
445.55	0.362
445.89	0.352
446.24	0.326
446.59	0.295
446.94	0.289
447.28	0.265
447.63	0.244
447.98	0.221
448.32	0.197
448.67	0.194
449.02	0.174
449.37	0.156
449.71	0.157
450.06	0.166
450.41	0.175
450.75	0.168
451.10	0.170
451.45	0.166
451.79	0.154
452.14	0.156
452.49	0.146
452.84	0.153
453.18	0.154
453.53	0.135
453.88	0.126
454.22	0.134
454.57	0.144
454.92	0.154
455.26	0.176
455.61	0.227
455.95	0.255
456.30	0.267
456.65	0.287
456.99	0.311
457.34	0.332
457.69	0.350
458.03	0.353
458.38	0.365
458.73	0.357
459.07	0.351
459.42	0.317
459.76	0.288
460.11	0.264
460.46	0.240
460.80	0.210
461.15	0.177
461.49	0.145
461.84	0.134
462.19	0.097
462.53	0.083
462.88	0.069
463.22	0.053
463.57	0.056
463.91	0.069
464.26	0.072
464.61	0.069
464.95	0.064
465.30	0.065
465.64	0.073
465.99	0.088
466.33	0.092
466.68	0.090
467.02	0.101
467.37	0.090
467.71	0.065
468.06	0.044
468.41	0.034
468.75	0.035
469.10	0.037
469.44	0.012
469.79	-0.011
470.13	-0.050
470.48	-0.056
470.82	-0.085
471.17	-0.078
471.51	-0.073
471.86	-0.074
472.20	-0.079
472.55	-0.084
472.89	-0.099
473.23	-0.114
473.58	-0.107
473.92	-0.096
474.27	-0.109
474.61	-0.119
474.96	-0.118
475.30	-0.110
475.65	-0.118
475.99	-0.121
476.34	-0.121
476.68	-0.130
477.02	-0.121
477.37	-0.129
477.71	-0.095
478.06	-0.066
478.40	0.007
478.75	0.073
479.09	0.148
479.43	0.231
479.78	0.302
480.12	0.367
480.47	0.439
480.81	0.498
481.15	0.556
481.50	0.605
481.84	0.652
482.19	0.690
482.53	0.721
482.87	0.736
483.22	0.737
483.56	0.733
483.90	0.714
484.25	0.688
484.59	0.664
484.94	0.640
485.28	0.600
485.62	0.566
485.97	0.523
486.31	0.488
486.65	0.463
487.00	0.444
487.34	0.433
487.68	0.420
488.03	0.410
488.37	0.398
488.71	0.378
489.06	0.371
489.40	0.364
489.74	0.351
490.09	0.339
490.43	0.317
490.77	0.282
491.11	0.242
491.46	0.219
491.80	0.184
492.14	0.138
492.49	0.120
492.83	0.072
493.17	0.026
493.51	-0.000
493.86	-0.033
494.20	-0.064
494.54	-0.076
494.88	-0.064
495.23	-0.057
495.57	-0.050
495.91	-0.037
496.25	-0.035
496.60	-0.015
496.94	-0.008
497.28	-0.002
497.62	-0.009
497.97	-0.008
498.31	0.005
498.65	-0.011
498.99	-0.031
499.33	-0.018
499.68	-0.009
500.02	-0.005
500.36	-0.014
500.70	-0.012
501.04	-0.021
501.39	-0.029
501.73	-0.019
502.07	-0.003
502.41	0.012
502.75	0.043
503.09	0.049
503.44	0.065
503.78	0.071
504.12	0.091
504.46	0.123
504.80	0.171
505.14	0.222
505.49	0.265
505.83	0.282
506.17	0.313
506.51	0.341
506.85	0.370
507.19	0.398
507.53	0.429
507.87	0.479
508.22	0.502
508.56	0.509
508.90	0.513
509.24	0.527
509.58	0.550
509.92	0.575
510.26	0.595
510.60	0.624
510.94	0.645
511.28	0.664
511.63	0.681
511.97	0.720
512.31	0.754
512.65	0.809
512.99	0.854
513.33	0.943
513.67	1.013
514.01	1.114
514.35	1.206
514.69	1.305
515.03	1.403
515.37	1.501
515.71	1.597
516.05	1.686
516.39	1.754
516.73	1.824
517.07	1.872
517.41	1.932
517.75	1.954
518.09	1.987
518.43	2.022
518.77	2.046
519.11	2.069
519.45	2.086
519.79	2.142
520.13	2.200
520.47	2.278
520.81	2.357
521.15	2.455
521.49	2.554
521.83	2.652
522.17	2.754
522.51	2.877
522.85	3.012
523.19	3.170
523.53	3.334
523.87	3.524
524.21	3.687
524.55	3.842
524.89	3.969
525.23	4.110
525.57	4.234
525.91	4.351
526.25	4.451
526.58	4.542
526.92	4.625
527.26	4.692
527.60	4.732
527.94	4.773
528.28	4.803
528.62	4.832
528.96	4.854
529.30	4.874
529.64	4.887
529.97	4.912
530.31	4.931
530.65	4.939
530.99	4.952
531.33	4.976
531.67	5.003
532.01	5.030
532.35	5.061
532.68	5.081
533.02	5.095
533.36	5.114
533.70	5.123
534.04	5.131
534.38	5.136
534.71	5.144
535.05	5.152
535.39	5.164
535.73	5.170
536.07	5.191
536.41	5.222
536.74	5.249
537.08	5.285
537.42	5.349
537.76	5.413
538.10	5.476
538.43	5.528
538.77	5.577
539.11	5.623
539.45	5.680
539.79	5.717
540.12	5.745
540.46	5.774
540.80	5.793
541.14	5.777
541.47	5.750
541.81	5.741
542.15	5.731
542.49	5.717
542.82	5.684
543.16	5.647
543.50	5.614
543.84	5.586
544.17	5.557
544.51	5.542
544.85	5.517
545.18	5.531
545.52	5.516
545.86	5.493
546.20	5.478
546.53	5.473
546.87	5.452
547.21	5.437
547.54	5.423
547.88	5.417
548.22	5.379
548.55	5.389
548.89	5.366
549.23	5.359
549.56	5.359
549.90	5.376
550.24	5.383
550.57	5.395
550.91	5.387
551.25	5.379
551.58	5.362
551.92	5.367
552.26	5.353
552.59	5.343
552.93	5.327
553.27	5.311
553.60	5.277
553.94	5.223
554.27	5.185
554.61	5.167
554.95	5.141
555.28	5.125
555.62	5.073
555.95	5.063
556.29	5.032
556.63	4.995
556.96	4.975
557.30	4.930
557.63	4.908
557.97	4.883
558.31	4.835
558.64	4.787
558.98	4.761
559.31	4.763
559.65	4.706
559.98	4.666
560.32	4.627
560.65	4.592
560.99	4.573
561.33	4.530
561.66	4.485
562.00	4.461
562.33	4.439
562.67	4.396
563.00	4.357
563.34	4.344
563.67	4.308
564.01	4.282
564.34	4.239
564.68	4.218
565.01	4.193
565.35	4.171
565.68	4.131
566.02	4.076
566.35	4.013
566.69	3.951
567.02	3.901
567.36	3.859
567.69	3.812
568.03	3.770
568.36	3.707
568.69	3.645
569.03	3.590
569.36	3.553
569.70	3.509
570.03	3.477
570.37	3.443
570.70	3.407
571.04	3.364
571.37	3.311
571.70	3.252
572.04	3.198
572.37	3.162
572.71	3.110
573.04	3.058
573.37	3.017
573.71	2.987
574.04	2.928
574.38	2.849
574.71	2.796
575.04	2.760
575.38	2.708
575.71	2.643
576.05	2.588
576.38	2.548
576.71	2.484
577.05	2.440
577.38	2.371
577.71	2.313
578.05	2.255
578.38	2.202
578.71	2.119
579.05	2.057
579.38	2.007
579.71	1.956
580.05	1.886
580.38	1.846
580.71	1.801
581.05	1.764
581.38	1.733
581.71	1.720
582.05	1.696
582.38	1.697
582.71	1.685
583.04	1.689
583.38	1.659
583.71	1.655
584.04	1.659
584.38	1.656
584.71	1.648
585.04	1.652
585.37	1.645
585.71	1.632
586.04	1.627
586.37	1.652
586.70	1.650
587.04	1.682
587.37	1.692
587.70	1.655
588.03	1.639
588.37	1.647
588.70	1.636
589.03	1.626
589.36	1.644
589.69	1.610
590.03	1.582
590.36	1.537
590.69	1.503
591.02	1.464
591.35	1.465
591.69	1.458
592.02	1.450
592.35	1.439
592.68	1.458
593.01	1.425
593.35	1.428
593.68	1.424
594.01	1.430
594.34	1.414
594.67	1.413
595.00	1.403
595.34	1.375
595.67	1.333
596.00	1.311
596.33	1.245
596.66	1.216
596.99	1.178
597.32	1.123
597.65	1.101
597.99	1.047
598.32	1.005
598.65	0.954
598.98	0.922
599.31	0.897
599.64	0.889
599.97	0.893
600.30	0.895
600.63	0.900
600.96	0.920
601.30	0.923
601.63	0.953
601.96	0.971
602.29	0.981
602.62	0.965
602.95	0.955
603.28	0.936
603.61	0.912
603.94	0.872
604.27	0.866
604.60	0.822
604.93	0.790
605.26	0.752
605.59	0.709
605.92	0.683
606.25	0.668
606.58	0.643
606.91	0.605
607.24	0.579
607.57	0.558
607.90	0.513
608.23	0.467
608.56	0.417
608.89	0.356
609.22	0.296
609.55	0.233
609.88	0.182
610.21	0.125
610.54	0.065
610.87	0.000
611.20	-0.070
611.53	-0.130
611.86	-0.162
612.19	-0.204
612.52	-0.246
612.85	-0.235
613.18	-0.264
613.51	-0.339
613.84	-0.393
614.17	-0.406
614.49	-0.400
614.82	-0.423
615.15	-0.427
615.48	-0.445
615.81	-0.484
616.14	-0.484
616.47	-0.549
616.80	-0.592
617.13	-0.569
617.46	-0.578
617.78	-0.605
618.11	-0.647
618.44	-0.662
618.77	-0.701
619.10	-0.734
619.43	-0.744
619.76	-0.783
620.09	-0.775
620.41	-0.776
620.74	-0.778
621.07	-0.747
621.40	-0.755
621.73	-0.764
622.06	-0.741
622.38	-0.715
622.71	-0.701
623.04	-0.670
623.37	-0.612
623.70	-0.616
624.02	-0.562
624.35	-0.521
624.68	-0.508
625.01	-0.472
625.34	-0.431
625.66	-0.428
625.99	-0.419
626.32	-0.412
626.65	-0.404
626.98	-0.434
627.30	-0.430
627.63	-0.485
627.96	-0.565
628.29	-0.621
628.61	-0.687
628.94	-0.745
629.27	-0.792
629.60	-0.857
629.92	-0.854
630.25	-0.914
630.58	-0.924
630.91	-0.949
631.23	-0.956
631.56	-0.949
631.89	-0.967
632.21	-0.966
632.54	-0.967
632.87	-0.968
633.19	-0.984
633.52	-1.057
633.85	-1.068
634.18	-1.123
634.50	-1.168
634.83	-1.210
635.16	-1.268
635.48	-1.323
635.81	-1.382
636.14	-1.438
636.46	-1.479
636.79	-1.518
637.11	-1.555
637.44	-1.606
637.77	-1.643
638.09	-1.673
638.42	-1.725
638.75	-1.757
639.07	-1.759
639.40	-1.774
639.73	-1.824
640.05	-1.840
640.38	-1.846
640.70	-1.902
641.03	-1.922
641.36	-1.927
641.68	-1.959
642.01	-1.948
642.33	-1.935
642.66	-1.950
642.98	-1.950
643.31	-1.943
643.64	-1.979
643.96	-1.989
644.29	-1.951
