OOIBase32 Version 2.0.0.6 Data File
++++++++++++++++++++++++++++++++++++
Date: 01-23-2012, 23:20:18
User: Valued Ocean Optics Customer
Spectrometer Serial Number: USB2E2917
Spectrometer Channel: Master
Integration Time (msec): 5
Spectra Averaged: 10
Boxcar Smoothing: 5
Correct for Electrical Dark: Enabled
Time Normalized: Disabled
Dual-beam Reference: Disabled
Reference Channel: Master
Temperature: Not acquired
Spectrometer Type: S2000
ADC Type: USB2000
Number of Pixels in File: 2048
Graph Title: 
>>>>>Begin Spectral Data<<<<<
180.30	0.000
180.67	0.000
181.03	6.738
181.40	665.518
181.77	6491.820
182.14	9.273
182.51	-288.281
182.88	297.963
183.25	47.305
183.62	46.352
183.99	153.497
184.36	27.402
184.73	526.157
185.10	103.232
185.46	132.700
185.83	267.704
186.20	-830.678
186.57	105.021
186.94	73.810
187.31	64.809
187.68	121.430
188.05	115.721
188.42	135.229
188.78	236.205
189.15	801.303
189.52	-185.498
189.89	-51.515
190.26	-42.112
190.63	-14.881
191.00	-19.501
191.37	-8.853
191.73	12.928
192.10	16.089
192.47	18.980
192.84	18.632
193.21	26.838
193.58	21.818
193.94	18.630
194.31	19.749
194.68	20.273
195.05	16.008
195.42	27.663
195.79	13.737
196.15	6.273
196.52	1.411
196.89	4.130
197.26	-8.961
197.63	6.758
198.00	15.281
198.36	1.266
198.73	-21.673
199.10	-16.410
199.47	-21.246
199.84	-16.427
200.20	-11.581
200.57	-9.663
200.94	-16.221
201.31	-14.231
201.68	-30.624
202.04	-21.853
202.41	-12.354
202.78	-7.749
203.15	-14.097
203.51	-18.513
203.88	-21.822
204.25	-30.778
204.62	-43.782
204.98	-50.101
205.35	-49.840
205.72	-25.271
206.09	-26.182
206.46	-87.293
206.82	-81.093
207.19	-60.827
207.56	-104.454
207.92	-92.461
208.29	-84.110
208.66	-42.455
209.03	-39.229
209.39	-18.546
209.76	-22.566
210.13	-41.744
210.50	-12.687
210.86	-2.891
211.23	-19.113
211.60	-0.781
211.96	9.112
212.33	6.366
212.70	3.472
213.07	9.879
213.43	-11.150
213.80	-14.521
214.17	-2.757
214.53	-3.594
214.90	-0.456
215.27	2.701
215.63	2.972
216.00	-1.052
216.37	-1.611
216.74	-8.774
217.10	-7.877
217.47	-3.814
217.84	-2.546
218.20	-2.983
218.57	0.909
218.94	-1.939
219.30	-7.181
219.67	-12.207
220.04	-9.123
220.40	-7.429
220.77	-13.686
221.13	-9.459
221.50	-5.451
221.87	-2.118
222.23	-11.162
222.60	-15.889
222.97	-11.864
223.33	-6.335
223.70	-3.234
224.07	-5.427
224.43	-4.427
224.80	-1.261
225.16	-5.274
225.53	-6.663
225.90	-9.451
226.26	-5.385
226.63	-3.054
226.99	-3.428
227.36	-2.563
227.73	-0.660
228.09	-0.231
228.46	1.206
228.82	1.852
229.19	2.038
229.56	1.272
229.92	1.960
230.29	1.129
230.65	0.278
231.02	-0.259
231.38	-2.626
231.75	-4.563
232.12	-5.354
232.48	-9.081
232.85	-10.394
233.21	-10.786
233.58	-12.267
233.94	-10.973
234.31	-11.665
234.68	-10.675
235.04	-10.210
235.41	-7.731
235.77	-6.151
236.14	-5.715
236.50	-4.109
236.87	-4.485
237.23	-3.576
237.60	-3.193
237.96	-3.141
238.33	-2.796
238.69	-2.905
239.06	-2.509
239.42	-2.576
239.79	-3.729
240.15	-3.250
240.52	-2.651
240.88	-2.125
241.25	-2.098
241.61	-1.403
241.98	-1.593
242.34	-1.329
242.71	-1.237
243.07	-0.859
243.44	-0.721
243.80	-0.259
244.17	-0.190
244.53	-0.612
244.90	-0.453
245.26	-0.286
245.63	-0.056
245.99	-0.027
246.36	-0.055
246.72	0.002
247.09	-0.552
247.45	-0.446
247.81	-0.270
248.18	-0.266
248.54	-0.138
248.91	-0.408
249.27	-0.387
249.64	-0.631
250.00	-0.525
250.36	-0.725
250.73	-0.769
251.09	-0.252
251.46	-0.587
251.82	-0.950
252.19	-1.265
252.55	-1.245
252.91	-1.058
253.28	-1.335
253.64	-1.732
254.01	-1.517
254.37	-1.197
254.73	-0.916
255.10	-0.543
255.46	-0.226
255.83	-0.014
256.19	0.142
256.55	0.017
256.92	0.296
257.28	0.450
257.65	0.693
258.01	0.617
258.37	0.586
258.74	0.349
259.10	0.220
259.46	0.124
259.83	0.158
260.19	0.144
260.55	0.298
260.92	0.063
261.28	-0.076
261.64	-0.176
262.01	0.002
262.37	-0.089
262.73	-0.014
263.10	0.164
263.46	0.244
263.82	0.019
264.19	-0.062
264.55	-0.405
264.91	-0.352
265.28	-0.600
265.64	-0.619
266.00	-0.897
266.37	-0.894
266.73	-0.964
267.09	-1.074
267.46	-1.056
267.82	-1.018
268.18	-0.760
268.54	-0.360
268.91	-0.429
269.27	-0.247
269.63	0.039
270.00	0.204
270.36	0.249
270.72	0.443
271.08	0.255
271.45	0.151
271.81	0.151
272.17	0.082
272.53	0.119
272.90	0.260
273.26	0.657
273.62	0.451
273.98	0.188
274.35	0.191
274.71	0.181
275.07	0.489
275.43	0.519
275.80	0.597
276.16	0.506
276.52	0.181
276.88	0.118
277.25	-0.316
277.61	-0.500
277.97	-0.468
278.33	-0.265
278.69	-0.444
279.06	-0.684
279.42	-0.614
279.78	-0.611
280.14	-0.651
280.50	-0.418
280.87	-0.187
281.23	0.002
281.59	0.109
281.95	0.221
282.31	0.242
282.68	0.219
283.04	0.186
283.40	0.148
283.76	0.128
284.12	0.243
284.48	0.125
284.85	0.084
285.21	0.059
285.57	0.101
285.93	0.207
286.29	0.010
286.65	0.326
287.02	0.722
287.38	0.712
287.74	0.643
288.10	0.643
288.46	0.736
288.82	0.505
289.18	0.413
289.54	0.381
289.91	0.295
290.27	0.306
290.63	0.114
290.99	-0.112
291.35	-0.017
291.71	0.228
292.07	0.105
292.43	0.140
292.79	0.228
293.16	0.204
293.52	0.379
293.88	0.434
294.24	0.472
294.60	0.449
294.96	0.500
295.32	0.427
295.68	0.332
296.04	0.321
296.40	0.377
296.76	0.537
297.12	0.564
297.49	0.357
297.85	0.287
298.21	0.214
298.57	0.118
298.93	0.142
299.29	0.010
299.65	0.073
300.01	0.155
300.37	0.114
300.73	0.131
301.09	0.121
301.45	0.288
301.81	0.395
302.17	0.557
302.53	0.576
302.89	0.434
303.25	0.688
303.61	0.704
303.97	0.695
304.33	0.707
304.69	0.627
305.05	0.666
305.41	0.516
305.77	0.583
306.13	0.441
306.49	0.501
306.85	0.658
307.21	0.625
307.57	0.535
307.93	0.451
308.29	0.470
308.65	0.596
309.01	0.567
309.37	0.565
309.73	0.497
310.09	0.670
310.45	0.705
310.81	0.631
311.17	0.604
311.53	0.601
311.89	0.742
312.25	0.755
312.61	0.606
312.96	0.683
313.32	0.842
313.68	0.775
314.04	0.666
314.40	0.664
314.76	0.540
315.12	0.435
315.48	0.533
315.84	0.493
316.20	0.381
316.56	0.304
316.92	0.219
317.27	0.097
317.63	0.243
317.99	0.198
318.35	0.146
318.71	0.228
319.07	0.320
319.43	0.262
319.79	0.295
320.15	0.275
320.50	0.320
320.86	0.364
321.22	0.330
321.58	0.205
321.94	0.179
322.30	0.177
322.66	0.124
323.01	0.007
323.37	-0.043
323.73	-0.102
324.09	-0.080
324.45	-0.036
324.81	-0.090
325.17	0.017
325.52	-0.079
325.88	-0.041
326.24	0.011
326.60	-0.004
326.96	-0.010
327.31	0.001
327.67	-0.117
328.03	-0.149
328.39	-0.256
328.75	-0.170
329.11	-0.138
329.46	0.012
329.82	0.069
330.18	0.006
330.54	0.105
330.90	0.193
331.25	0.171
331.61	0.354
331.97	0.427
332.33	0.533
332.68	0.493
333.04	0.390
333.40	0.269
333.76	0.234
334.11	0.202
334.47	0.177
334.83	0.157
335.19	0.142
335.54	0.047
335.90	0.020
336.26	-0.009
336.62	-0.050
336.97	-0.143
337.33	-0.146
337.69	-0.219
338.05	-0.267
338.40	-0.371
338.76	-0.399
339.12	-0.329
339.48	-0.304
339.83	-0.275
340.19	-0.272
340.55	-0.188
340.90	-0.101
341.26	-0.071
341.62	-0.024
341.97	0.025
342.33	0.119
342.69	0.147
343.04	0.142
343.40	0.073
343.76	0.001
344.12	-0.031
344.47	-0.054
344.83	-0.023
345.19	0.032
345.54	0.047
345.90	0.106
346.26	0.093
346.61	0.155
346.97	0.115
347.32	0.123
347.68	0.088
348.04	0.035
348.39	-0.026
348.75	-0.022
349.11	-0.074
349.46	-0.073
349.82	-0.140
350.18	-0.176
350.53	-0.190
350.89	-0.188
351.24	-0.141
351.60	-0.143
351.96	-0.074
352.31	-0.059
352.67	-0.098
353.02	-0.124
353.38	-0.130
353.74	-0.132
354.09	-0.151
354.45	-0.178
354.80	-0.148
355.16	-0.132
355.52	-0.064
355.87	-0.101
356.23	-0.065
356.58	-0.064
356.94	-0.003
357.29	0.004
357.65	0.062
358.00	0.111
358.36	0.089
358.72	0.087
359.07	0.047
359.43	0.047
359.78	0.121
360.14	0.083
360.49	0.087
360.85	0.063
361.20	0.057
361.56	0.031
361.91	0.034
362.27	0.072
362.62	0.079
362.98	0.127
363.33	0.129
363.69	0.086
364.04	0.159
364.40	0.169
364.75	0.188
365.11	0.212
365.46	0.237
365.82	0.231
366.17	0.208
366.53	0.198
366.88	0.194
367.24	0.242
367.59	0.221
367.95	0.188
368.30	0.153
368.66	0.164
369.01	0.141
369.37	0.133
369.72	0.195
370.08	0.205
370.43	0.233
370.78	0.232
371.14	0.168
371.49	0.232
371.85	0.200
372.20	0.228
372.56	0.183
372.91	0.164
373.26	0.165
373.62	0.079
373.97	0.105
374.33	0.069
374.68	0.058
375.03	0.093
375.39	0.034
375.74	0.046
376.10	0.015
376.45	0.055
376.80	0.077
377.16	0.040
377.51	0.077
377.87	0.069
378.22	0.030
378.57	0.047
378.93	0.056
379.28	0.111
379.63	0.110
379.99	0.170
380.34	0.192
380.70	0.207
381.05	0.253
381.40	0.229
381.76	0.230
382.11	0.272
382.46	0.271
382.82	0.290
383.17	0.263
383.52	0.287
383.88	0.280
384.23	0.268
384.58	0.254
384.94	0.248
385.29	0.304
385.64	0.343
385.99	0.377
386.35	0.422
386.70	0.399
387.05	0.375
387.41	0.384
387.76	0.355
388.11	0.337
388.47	0.315
388.82	0.313
389.17	0.276
389.52	0.259
389.88	0.274
390.23	0.230
390.58	0.279
390.93	0.312
391.29	0.291
391.64	0.311
391.99	0.349
392.34	0.384
392.70	0.381
393.05	0.403
393.40	0.413
393.75	0.365
394.11	0.365
394.46	0.316
394.81	0.321
395.16	0.294
395.52	0.260
395.87	0.230
396.22	0.262
396.57	0.257
396.92	0.248
397.28	0.225
397.63	0.213
397.98	0.195
398.33	0.163
398.68	0.118
399.04	0.133
399.39	0.120
399.74	0.107
400.09	0.055
400.44	0.052
400.80	0.030
401.15	0.022
401.50	0.032
401.85	0.049
402.20	0.052
402.55	0.074
402.90	0.049
403.26	0.077
403.61	0.079
403.96	0.065
404.31	0.056
404.66	0.066
405.01	0.039
405.36	0.051
405.72	0.040
406.07	0.048
406.42	0.038
406.77	0.063
407.12	0.034
407.47	0.054
407.82	0.076
408.17	0.094
408.53	0.074
408.88	0.067
409.23	0.054
409.58	0.020
409.93	0.031
410.28	0.039
410.63	0.014
410.98	0.035
411.33	0.022
411.68	0.050
412.03	0.066
412.38	0.074
412.73	0.108
413.09	0.132
413.44	0.177
413.79	0.178
414.14	0.198
414.49	0.253
414.84	0.277
415.19	0.289
415.54	0.303
415.89	0.310
416.24	0.367
416.59	0.399
416.94	0.413
417.29	0.435
417.64	0.447
417.99	0.466
418.34	0.466
418.69	0.473
419.04	0.479
419.39	0.484
419.74	0.497
420.09	0.491
420.44	0.480
420.79	0.481
421.14	0.486
421.49	0.500
421.84	0.491
422.19	0.495
422.54	0.497
422.89	0.502
423.24	0.489
423.59	0.470
423.94	0.455
424.29	0.453
424.64	0.454
424.99	0.440
425.34	0.400
425.68	0.393
426.03	0.362
426.38	0.352
426.73	0.340
427.08	0.338
427.43	0.348
427.78	0.352
428.13	0.343
428.48	0.339
428.83	0.328
429.18	0.349
429.53	0.356
429.87	0.361
430.22	0.354
430.57	0.354
430.92	0.349
431.27	0.355
431.62	0.342
431.97	0.345
432.32	0.323
432.67	0.311
433.01	0.296
433.36	0.280
433.71	0.267
434.06	0.256
434.41	0.248
434.76	0.256
435.11	0.245
435.45	0.252
435.80	0.248
436.15	0.271
436.50	0.300
436.85	0.313
437.20	0.305
437.54	0.322
437.89	0.337
438.24	0.346
438.59	0.352
438.94	0.355
439.29	0.347
439.63	0.364
439.98	0.349
440.33	0.328
440.68	0.325
441.03	0.337
441.37	0.341
441.72	0.339
442.07	0.338
442.42	0.347
442.76	0.357
443.11	0.371
443.46	0.372
443.81	0.392
444.16	0.416
444.50	0.420
444.85	0.423
445.20	0.419
445.55	0.424
445.89	0.419
446.24	0.403
446.59	0.372
446.94	0.355
447.28	0.332
447.63	0.294
447.98	0.256
448.32	0.230
448.67	0.193
449.02	0.172
449.37	0.133
449.71	0.129
450.06	0.115
450.41	0.134
450.75	0.143
451.10	0.149
451.45	0.146
451.79	0.138
452.14	0.138
452.49	0.148
452.84	0.138
453.18	0.130
453.53	0.099
453.88	0.089
454.22	0.078
454.57	0.077
454.92	0.080
455.26	0.108
455.61	0.148
455.95	0.167
456.30	0.171
456.65	0.206
456.99	0.240
457.34	0.271
457.69	0.291
458.03	0.301
458.38	0.304
458.73	0.294
459.07	0.283
459.42	0.247
459.76	0.221
460.11	0.212
460.46	0.183
460.80	0.144
461.15	0.115
461.49	0.079
461.84	0.065
462.19	0.060
462.53	0.054
462.88	0.044
463.22	0.051
463.57	0.071
463.91	0.068
464.26	0.077
464.61	0.090
464.95	0.073
465.30	0.072
465.64	0.072
465.99	0.063
466.33	0.075
466.68	0.068
467.02	0.063
467.37	0.032
467.71	0.017
468.06	-0.004
468.41	-0.025
468.75	-0.014
469.10	-0.012
469.44	-0.028
469.79	-0.053
470.13	-0.095
470.48	-0.109
470.82	-0.123
471.17	-0.117
471.51	-0.134
471.86	-0.154
472.20	-0.160
472.55	-0.178
472.89	-0.185
473.23	-0.208
473.58	-0.213
473.92	-0.208
474.27	-0.222
474.61	-0.235
474.96	-0.226
475.30	-0.207
475.65	-0.218
475.99	-0.209
476.34	-0.200
476.68	-0.221
477.02	-0.217
477.37	-0.207
477.71	-0.181
478.06	-0.132
478.40	-0.057
478.75	0.010
479.09	0.090
479.43	0.184
479.78	0.260
480.12	0.331
480.47	0.404
480.81	0.460
481.15	0.515
481.50	0.562
481.84	0.605
482.19	0.631
482.53	0.658
482.87	0.678
483.22	0.676
483.56	0.659
483.90	0.637
484.25	0.610
484.59	0.589
484.94	0.556
485.28	0.525
485.62	0.487
485.97	0.451
486.31	0.420
486.65	0.384
487.00	0.361
487.34	0.350
487.68	0.333
488.03	0.321
488.37	0.296
488.71	0.293
489.06	0.279
489.40	0.272
489.74	0.258
490.09	0.245
490.43	0.221
490.77	0.193
491.11	0.152
491.46	0.123
491.80	0.085
492.14	0.050
492.49	0.012
492.83	-0.033
493.17	-0.087
493.51	-0.125
493.86	-0.175
494.20	-0.198
494.54	-0.224
494.88	-0.213
495.23	-0.209
495.57	-0.203
495.91	-0.175
496.25	-0.173
496.60	-0.170
496.94	-0.160
497.28	-0.158
497.62	-0.156
497.97	-0.168
498.31	-0.163
498.65	-0.174
498.99	-0.181
499.33	-0.172
499.68	-0.187
500.02	-0.193
500.36	-0.189
500.70	-0.196
501.04	-0.205
501.39	-0.219
501.73	-0.209
502.07	-0.176
502.41	-0.163
502.75	-0.146
503.09	-0.150
503.44	-0.132
503.78	-0.116
504.12	-0.094
504.46	-0.057
504.80	-0.015
505.14	0.035
505.49	0.077
505.83	0.092
506.17	0.124
506.51	0.144
506.85	0.179
507.19	0.215
507.53	0.235
507.87	0.269
508.22	0.285
508.56	0.307
508.90	0.319
509.24	0.330
509.58	0.344
509.92	0.375
510.26	0.400
510.60	0.430
510.94	0.447
511.28	0.482
511.63	0.506
511.97	0.548
512.31	0.586
512.65	0.639
512.99	0.702
513.33	0.798
513.67	0.859
514.01	0.958
514.35	1.052
514.69	1.141
515.03	1.220
515.37	1.323
515.71	1.416
516.05	1.491
516.39	1.559
516.73	1.624
517.07	1.674
517.41	1.721
517.75	1.760
518.09	1.795
518.43	1.837
518.77	1.880
519.11	1.902
519.45	1.927
519.79	1.983
520.13	2.024
520.47	2.087
520.81	2.141
521.15	2.259
521.49	2.348
521.83	2.446
522.17	2.545
522.51	2.662
522.85	2.799
523.19	2.950
523.53	3.102
523.87	3.282
524.21	3.440
524.55	3.599
524.89	3.726
525.23	3.853
525.57	3.958
525.91	4.062
526.25	4.154
526.58	4.239
526.92	4.306
527.26	4.364
527.60	4.398
527.94	4.427
528.28	4.452
528.62	4.459
528.96	4.469
529.30	4.485
529.64	4.490
529.97	4.496
530.31	4.491
530.65	4.507
530.99	4.519
531.33	4.549
531.67	4.570
532.01	4.598
532.35	4.622
532.68	4.636
533.02	4.649
533.36	4.667
533.70	4.671
534.04	4.684
534.38	4.675
534.71	4.687
535.05	4.677
535.39	4.692
535.73	4.686
536.07	4.702
536.41	4.723
536.74	4.761
537.08	4.805
537.42	4.864
537.76	4.915
538.10	4.978
538.43	5.018
538.77	5.086
539.11	5.121
539.45	5.161
539.79	5.207
540.12	5.243
540.46	5.257
540.80	5.265
541.14	5.253
541.47	5.233
541.81	5.219
542.15	5.211
542.49	5.183
542.82	5.169
543.16	5.142
543.50	5.099
543.84	5.071
544.17	5.046
544.51	5.027
544.85	5.027
545.18	5.028
545.52	5.014
545.86	4.994
546.20	4.984
546.53	4.968
546.87	4.942
547.21	4.931
547.54	4.892
547.88	4.878
548.22	4.842
548.55	4.814
548.89	4.800
549.23	4.786
549.56	4.783
549.90	4.778
550.24	4.776
550.57	4.795
550.91	4.773
551.25	4.794
551.58	4.799
551.92	4.797
552.26	4.788
552.59	4.769
552.93	4.743
553.27	4.724
553.60	4.687
553.94	4.635
554.27	4.607
554.61	4.605
554.95	4.575
555.28	4.523
555.62	4.500
555.95	4.498
556.29	4.489
556.63	4.469
556.96	4.449
557.30	4.430
557.63	4.421
557.97	4.392
558.31	4.356
558.64	4.334
558.98	4.337
559.31	4.318
559.65	4.262
559.98	4.225
560.32	4.191
560.65	4.154
560.99	4.126
561.33	4.098
561.66	4.060
562.00	4.021
562.33	3.974
562.67	3.929
563.00	3.900
563.34	3.894
563.67	3.856
564.01	3.825
564.34	3.790
564.68	3.759
565.01	3.720
565.35	3.679
565.68	3.640
566.02	3.596
566.35	3.548
566.69	3.488
567.02	3.438
567.36	3.380
567.69	3.352
568.03	3.322
568.36	3.268
568.69	3.232
569.03	3.205
569.36	3.168
569.70	3.119
570.03	3.098
570.37	3.071
570.70	3.022
571.04	3.001
571.37	2.930
571.70	2.851
572.04	2.808
572.37	2.755
572.71	2.693
573.04	2.655
573.37	2.632
573.71	2.566
574.04	2.504
574.38	2.453
574.71	2.404
575.04	2.367
575.38	2.338
575.71	2.288
576.05	2.235
576.38	2.199
576.71	2.125
577.05	2.073
577.38	2.024
577.71	1.948
578.05	1.884
578.38	1.818
578.71	1.764
579.05	1.704
579.38	1.640
579.71	1.585
580.05	1.528
580.38	1.497
580.71	1.443
581.05	1.413
581.38	1.388
581.71	1.365
582.05	1.355
582.38	1.352
582.71	1.337
583.04	1.338
583.38	1.318
583.71	1.312
584.04	1.324
584.38	1.320
584.71	1.312
585.04	1.339
585.37	1.354
585.71	1.347
586.04	1.319
586.37	1.335
586.70	1.333
587.04	1.348
587.37	1.338
587.70	1.313
588.03	1.309
588.37	1.318
588.70	1.313
589.03	1.276
589.36	1.270
589.69	1.256
590.03	1.247
590.36	1.222
590.69	1.180
591.02	1.152
591.35	1.130
591.69	1.133
592.02	1.115
592.35	1.104
592.68	1.112
593.01	1.099
593.35	1.089
593.68	1.071
594.01	1.071
594.34	1.056
594.67	1.093
595.00	1.091
595.34	1.061
595.67	1.010
596.00	0.996
596.33	0.943
596.66	0.909
596.99	0.892
597.32	0.832
597.65	0.786
597.99	0.777
598.32	0.698
598.65	0.644
598.98	0.598
599.31	0.588
599.64	0.569
599.97	0.571
600.30	0.570
600.63	0.578
600.96	0.610
601.30	0.622
601.63	0.649
601.96	0.667
602.29	0.680
602.62	0.677
602.95	0.686
603.28	0.677
603.61	0.650
603.94	0.618
604.27	0.602
604.60	0.567
604.93	0.547
605.26	0.508
605.59	0.478
605.92	0.474
606.25	0.446
606.58	0.403
606.91	0.349
607.24	0.348
607.57	0.327
607.90	0.287
608.23	0.247
608.56	0.210
608.89	0.147
609.22	0.107
609.55	0.039
609.88	-0.019
610.21	-0.063
610.54	-0.136
610.87	-0.203
611.20	-0.259
611.53	-0.307
611.86	-0.349
612.19	-0.426
612.52	-0.474
612.85	-0.501
613.18	-0.541
613.51	-0.575
613.84	-0.611
614.17	-0.610
614.49	-0.617
614.82	-0.645
615.15	-0.681
615.48	-0.707
615.81	-0.724
616.14	-0.713
616.47	-0.775
616.80	-0.821
617.13	-0.832
617.46	-0.878
617.78	-0.902
618.11	-0.943
618.44	-0.961
618.77	-0.992
619.10	-1.004
619.43	-1.010
619.76	-1.054
620.09	-1.049
620.41	-1.046
620.74	-1.027
621.07	-0.992
621.40	-0.964
621.73	-0.957
622.06	-0.945
622.38	-0.900
622.71	-0.872
623.04	-0.838
623.37	-0.786
623.70	-0.752
624.02	-0.704
624.35	-0.669
624.68	-0.643
625.01	-0.631
625.34	-0.590
625.66	-0.563
625.99	-0.555
626.32	-0.573
626.65	-0.568
626.98	-0.589
627.30	-0.613
627.63	-0.653
627.96	-0.711
628.29	-0.766
628.61	-0.803
628.94	-0.851
629.27	-0.890
629.60	-0.950
629.92	-0.962
630.25	-1.020
630.58	-1.060
630.91	-1.064
631.23	-1.081
631.56	-1.090
631.89	-1.108
632.21	-1.128
632.54	-1.159
632.87	-1.199
633.19	-1.237
633.52	-1.291
633.85	-1.316
634.18	-1.346
634.50	-1.402
634.83	-1.430
635.16	-1.480
635.48	-1.527
635.81	-1.581
636.14	-1.618
636.46	-1.637
636.79	-1.648
637.11	-1.657
637.44	-1.725
637.77	-1.752
638.09	-1.828
638.42	-1.892
638.75	-1.923
639.07	-1.961
639.40	-1.985
639.73	-2.034
640.05	-2.083
640.38	-2.083
640.70	-2.167
641.03	-2.161
641.36	-2.170
641.68	-2.131
642.01	-2.119
642.33	-2.130
642.66	-2.116
642.98	-2.118
643.31	-2.099
643.64	-2.075
643.96	-2.094
644.29	-2.016
644.61	-1.997
644.94	-1.991
645.26	-1.979
645.59	-1.930
645.91	-1.912
646.24	-1.880
646.56	-1.847
646.89	-1.831
647.22	-1.834
647.54	-1.815
647.87	-1.827
648.19	-1.842
648.52	-1.867
648.84	-1.847
649.17	-1.899
649.49	-1.885
649.82	-1.887
650.14	-1.870
650.47	-1.866
650.79	-1.849
