OOIBase32 Version 2.0.0.6 Data File
++++++++++++++++++++++++++++++++++++
Date: 01-24-2012, 17:46:01
User: Valued Ocean Optics Customer
Spectrometer Serial Number: USB2E2917
Spectrometer Channel: Master
Integration Time (msec): 7
Spectra Averaged: 10
Boxcar Smoothing: 5
Correct for Electrical Dark: Enabled
Time Normalized: Disabled
Dual-beam Reference: Disabled
Reference Channel: Master
Temperature: Not acquired
Spectrometer Type: S2000
ADC Type: USB2000
Number of Pixels in File: 2048
Graph Title: 
>>>>>Begin Spectral Data<<<<<
180.30	0.000
180.67	0.000
181.03	188.609
181.40	-434738.095
181.77	-1824.194
182.14	-103.645
182.51	19.247
182.88	43.687
183.25	93.151
183.62	235.391
183.99	89.478
184.36	78.522
184.73	59.488
185.10	73.338
185.46	30.396
185.83	153.226
186.20	77.357
186.57	15.273
186.94	-54.107
187.31	105.493
187.68	-14.214
188.05	-188.593
188.42	-123.276
188.78	-123.141
189.15	-72.413
189.52	-29.011
189.89	-39.331
190.26	-45.400
190.63	-44.451
191.00	-34.276
191.37	-49.505
191.73	-53.077
192.10	-64.438
192.47	-17.963
192.84	1.145
193.21	-3.157
193.58	0.325
193.94	10.173
194.31	3.444
194.68	3.426
195.05	-2.490
195.42	11.235
195.79	20.433
196.15	26.463
196.52	16.029
196.89	11.629
197.26	14.734
197.63	12.525
198.00	10.649
198.36	-0.668
198.73	-9.840
199.10	-0.692
199.47	-0.581
199.84	-5.408
200.20	-9.440
200.57	-20.297
200.94	-20.918
201.31	-7.714
201.68	-11.161
202.04	-17.024
202.41	-5.350
202.78	3.906
203.15	1.412
203.51	0.860
203.88	-13.161
204.25	-25.741
204.62	-24.208
204.98	-41.352
205.35	-64.946
205.72	-69.484
206.09	-44.355
206.46	-59.261
206.82	-66.673
207.19	-79.870
207.56	-70.127
207.92	-37.540
208.29	-48.135
208.66	-51.897
209.03	-19.839
209.39	-21.531
209.76	-18.068
210.13	-28.470
210.50	-17.244
210.86	-14.175
211.23	0.188
211.60	3.491
211.96	-5.001
212.33	8.983
212.70	20.369
213.07	13.033
213.43	8.351
213.80	17.750
214.17	20.548
214.53	25.174
214.90	26.943
215.27	10.183
215.63	18.291
216.00	6.257
216.37	9.442
216.74	5.497
217.10	2.223
217.47	10.250
217.84	-16.039
218.20	-23.813
218.57	-13.557
218.94	-9.519
219.30	5.966
219.67	9.543
220.04	15.519
220.40	8.948
220.77	14.196
221.13	15.162
221.50	12.797
221.87	17.926
222.23	12.962
222.60	9.460
222.97	5.277
223.33	-0.293
223.70	-11.776
224.07	-11.627
224.43	-7.163
224.80	-8.390
225.16	-6.126
225.53	-4.051
225.90	-5.037
226.26	-1.556
226.63	-6.384
226.99	-4.846
227.36	-4.736
227.73	-6.538
228.09	-7.990
228.46	-9.298
228.82	-7.695
229.19	-8.565
229.56	-11.498
229.92	-10.691
230.29	-9.679
230.65	-6.876
231.02	-6.705
231.38	-5.143
231.75	-2.629
232.12	-1.234
232.48	-1.457
232.85	-3.648
233.21	-2.378
233.58	-0.858
233.94	-3.684
234.31	-7.734
234.68	-8.029
235.04	-6.021
235.41	-7.006
235.77	-6.416
236.14	-5.017
236.50	-2.920
236.87	-2.325
237.23	-2.847
237.60	-4.046
237.96	-2.669
238.33	-0.751
238.69	-0.434
239.06	-0.744
239.42	-0.314
239.79	-0.542
240.15	-0.794
240.52	-1.451
240.88	-1.289
241.25	-1.158
241.61	0.048
241.98	0.450
242.34	0.792
242.71	0.840
243.07	0.369
243.44	0.569
243.80	0.917
244.17	1.198
244.53	1.079
244.90	0.614
245.26	0.845
245.63	0.659
245.99	0.373
246.36	0.199
246.72	0.121
247.09	0.126
247.45	-0.057
247.81	-0.099
248.18	0.049
248.54	-0.133
248.91	0.055
249.27	-0.252
249.64	-0.347
250.00	-0.647
250.36	-0.467
250.73	-0.295
251.09	0.070
251.46	-0.053
251.82	0.105
252.19	-0.761
252.55	-0.437
252.91	-0.615
253.28	0.324
253.64	1.601
254.01	2.001
254.37	1.715
254.73	1.273
255.10	1.454
255.46	2.060
255.83	1.631
256.19	1.559
256.55	1.694
256.92	2.020
257.28	2.000
257.65	1.625
258.01	1.775
258.37	1.698
258.74	1.670
259.10	1.495
259.46	0.977
259.83	1.119
260.19	1.490
260.55	1.412
260.92	1.030
261.28	0.694
261.64	0.443
262.01	0.617
262.37	0.902
262.73	1.182
263.10	0.654
263.46	0.920
263.82	0.813
264.19	0.816
264.55	1.193
264.91	2.061
265.28	1.848
265.64	2.115
266.00	1.676
266.37	1.443
266.73	1.388
267.09	1.694
267.46	1.807
267.82	1.866
268.18	1.876
268.54	1.255
268.91	0.233
269.27	0.449
269.63	0.427
270.00	0.709
270.36	1.089
270.72	0.836
271.08	0.946
271.45	0.814
271.81	0.653
272.17	0.360
272.53	0.673
272.90	1.075
273.26	0.867
273.62	1.095
273.98	0.771
274.35	0.131
274.71	0.344
275.07	0.330
275.43	0.514
275.80	0.642
276.16	0.398
276.52	0.511
276.88	0.770
277.25	0.857
277.61	0.595
277.97	0.804
278.33	0.900
278.69	0.791
279.06	0.436
279.42	0.574
279.78	0.293
280.14	0.690
280.50	0.551
280.87	0.716
281.23	0.988
281.59	0.994
281.95	1.111
282.31	1.193
282.68	1.346
283.04	1.595
283.40	1.462
283.76	1.441
284.12	1.427
284.48	1.452
284.85	1.128
285.21	0.830
285.57	0.730
285.93	0.615
286.29	0.783
286.65	0.726
287.02	0.721
287.38	0.703
287.74	0.943
288.10	0.879
288.46	0.877
288.82	1.198
289.18	1.311
289.54	1.323
289.91	1.244
290.27	0.917
290.63	0.605
290.99	0.574
291.35	0.590
291.71	0.564
292.07	0.699
292.43	0.722
292.79	0.655
293.16	0.791
293.52	0.781
293.88	1.003
294.24	1.136
294.60	1.464
294.96	1.376
295.32	1.367
295.68	1.388
296.04	1.307
296.40	1.151
296.76	0.929
297.12	0.679
297.49	0.695
297.85	0.587
298.21	0.444
298.57	0.153
298.93	0.221
299.29	0.109
299.65	-0.056
300.01	-0.096
300.37	0.151
300.73	0.280
301.09	0.475
301.45	0.570
301.81	0.400
302.17	0.369
302.53	0.613
302.89	0.602
303.25	0.682
303.61	0.736
303.97	0.676
304.33	0.424
304.69	0.410
305.05	0.205
305.41	0.184
305.77	0.272
306.13	0.451
306.49	0.150
306.85	0.162
307.21	0.141
307.57	0.089
307.93	0.049
308.29	0.032
308.65	-0.114
309.01	-0.120
309.37	-0.201
309.73	-0.311
310.09	-0.545
310.45	-0.427
310.81	-0.630
311.17	-0.695
311.53	-0.704
311.89	-0.818
312.25	-0.778
312.61	-0.844
312.96	-0.984
313.32	-1.130
313.68	-1.261
314.04	-1.025
314.40	-1.273
314.76	-1.208
315.12	-1.322
315.48	-1.453
315.84	-1.481
316.20	-1.514
316.56	-1.480
316.92	-1.349
317.27	-1.533
317.63	-1.475
317.99	-1.899
318.35	-1.750
318.71	-1.803
319.07	-1.839
319.43	-1.910
319.79	-2.038
320.15	-2.368
320.50	-2.520
320.86	-2.768
321.22	-2.757
321.58	-2.770
321.94	-2.654
322.30	-2.733
322.66	-2.800
323.01	-2.872
323.37	-2.804
323.73	-2.944
324.09	-2.791
324.45	-2.988
324.81	-2.879
325.17	-2.822
325.52	-2.906
325.88	-3.078
326.24	-3.229
326.60	-3.432
326.96	-3.519
327.31	-3.773
327.67	-3.560
328.03	-3.728
328.39	-3.675
328.75	-3.846
329.11	-3.928
329.46	-4.076
329.82	-3.779
330.18	-3.766
330.54	-3.661
330.90	-3.593
331.25	-3.474
331.61	-3.495
331.97	-3.512
332.33	-3.419
332.68	-3.379
333.04	-3.372
333.40	-3.209
333.76	-3.365
334.11	-3.287
334.47	-3.291
334.83	-3.336
335.19	-3.356
335.54	-3.439
335.90	-3.376
336.26	-3.353
336.62	-3.331
336.97	-3.531
337.33	-3.694
337.69	-3.802
338.05	-3.842
338.40	-3.881
338.76	-3.992
339.12	-4.018
339.48	-3.973
339.83	-3.979
340.19	-4.012
340.55	-4.064
340.90	-3.928
341.26	-3.728
341.62	-3.657
341.97	-3.669
342.33	-3.630
342.69	-3.523
343.04	-3.579
343.40	-3.673
343.76	-3.675
344.12	-3.657
344.47	-3.613
344.83	-3.567
345.19	-3.746
345.54	-3.819
345.90	-3.863
346.26	-3.895
346.61	-4.011
346.97	-3.944
347.32	-3.989
347.68	-4.101
348.04	-4.268
348.39	-4.388
348.75	-4.570
349.11	-4.686
349.46	-4.798
349.82	-4.822
350.18	-4.856
350.53	-4.823
350.89	-5.009
351.24	-4.911
351.60	-4.952
351.96	-4.878
352.31	-4.824
352.67	-4.675
353.02	-4.596
353.38	-4.447
353.74	-4.448
354.09	-4.389
354.45	-4.304
354.80	-4.173
355.16	-4.189
355.52	-4.011
355.87	-3.976
356.23	-3.897
356.58	-4.006
356.94	-3.974
357.29	-3.974
357.65	-3.902
358.00	-3.914
358.36	-3.961
358.72	-3.938
359.07	-3.988
359.43	-4.021
359.78	-4.004
360.14	-4.156
360.49	-4.150
360.85	-4.164
361.20	-4.284
361.56	-4.447
361.91	-4.578
362.27	-4.692
362.62	-4.796
362.98	-4.922
363.33	-5.008
363.69	-5.140
364.04	-5.176
364.40	-5.286
364.75	-5.419
365.11	-5.467
365.46	-5.419
365.82	-5.438
366.17	-5.492
366.53	-5.526
366.88	-5.470
367.24	-5.532
367.59	-5.511
367.95	-5.488
368.30	-5.421
368.66	-5.365
369.01	-5.285
369.37	-5.150
369.72	-5.108
370.08	-4.951
370.43	-4.894
370.78	-4.861
371.14	-4.750
371.49	-4.722
371.85	-4.662
372.20	-4.626
372.56	-4.638
372.91	-4.726
373.26	-4.939
373.62	-5.057
373.97	-5.152
374.33	-5.184
374.68	-5.269
375.03	-5.378
375.39	-5.453
375.74	-5.597
376.10	-5.658
376.45	-5.615
376.80	-5.554
377.16	-5.399
377.51	-5.247
377.87	-5.177
378.22	-5.094
378.57	-4.987
378.93	-4.904
379.28	-4.760
379.63	-4.503
379.99	-4.329
380.34	-4.201
380.70	-4.044
381.05	-3.994
381.40	-3.944
381.76	-3.938
382.11	-3.964
382.46	-3.887
382.82	-3.867
383.17	-3.894
383.52	-3.960
383.88	-4.034
384.23	-4.175
384.58	-4.309
384.94	-4.425
385.29	-4.512
385.64	-4.549
385.99	-4.610
386.35	-4.743
386.70	-4.812
387.05	-4.906
387.41	-4.982
387.76	-4.959
388.11	-4.919
388.47	-4.861
388.82	-4.815
389.17	-4.719
389.52	-4.655
389.88	-4.547
390.23	-4.434
390.58	-4.283
390.93	-4.128
391.29	-3.996
391.64	-3.952
391.99	-3.910
392.34	-3.926
392.70	-3.944
393.05	-4.015
393.40	-4.098
393.75	-4.179
394.11	-4.320
394.46	-4.523
394.81	-4.735
395.16	-4.951
395.52	-5.178
395.87	-5.464
396.22	-5.724
396.57	-5.987
396.92	-6.312
397.28	-6.526
397.63	-6.824
397.98	-7.078
398.33	-7.311
398.68	-7.450
399.04	-7.574
399.39	-7.736
399.74	-7.696
400.09	-7.678
400.44	-7.636
400.80	-7.529
401.15	-7.501
401.50	-7.395
401.85	-7.233
402.20	-7.112
402.55	-7.046
402.90	-7.010
403.26	-6.931
403.61	-6.979
403.96	-6.991
404.31	-6.995
404.66	-7.032
405.01	-7.012
405.36	-7.086
405.72	-7.188
406.07	-7.250
406.42	-7.318
406.77	-7.385
407.12	-7.440
407.47	-7.419
407.82	-7.438
408.17	-7.485
408.53	-7.500
408.88	-7.591
409.23	-7.611
409.58	-7.657
409.93	-7.719
410.28	-7.787
410.63	-7.803
410.98	-7.797
411.33	-7.778
411.68	-7.723
412.03	-7.649
412.38	-7.487
412.73	-7.244
413.09	-7.027
413.44	-6.771
413.79	-6.482
414.14	-6.121
414.49	-5.821
414.84	-5.507
415.19	-5.197
415.54	-4.878
415.89	-4.545
416.24	-4.267
416.59	-4.028
416.94	-3.767
417.29	-3.568
417.64	-3.361
417.99	-3.216
418.34	-3.062
418.69	-2.946
419.04	-2.834
419.39	-2.753
419.74	-2.675
420.09	-2.602
420.44	-2.569
420.79	-2.561
421.14	-2.518
421.49	-2.515
421.84	-2.533
422.19	-2.574
422.54	-2.597
422.89	-2.686
423.24	-2.805
423.59	-2.928
423.94	-3.116
424.29	-3.281
424.64	-3.431
424.99	-3.653
425.34	-3.838
425.68	-4.004
426.03	-4.143
426.38	-4.320
426.73	-4.439
427.08	-4.442
427.43	-4.461
427.78	-4.384
428.13	-4.325
428.48	-4.259
428.83	-4.181
429.18	-4.098
429.53	-4.026
429.87	-3.985
430.22	-3.943
430.57	-3.901
430.92	-3.908
431.27	-3.954
431.62	-4.010
431.97	-4.085
432.32	-4.189
432.67	-4.255
433.01	-4.371
433.36	-4.502
433.71	-4.601
434.06	-4.663
434.41	-4.682
434.76	-4.690
435.11	-4.623
435.45	-4.556
435.80	-4.434
436.15	-4.315
436.50	-4.202
436.85	-4.060
437.20	-3.944
437.54	-3.864
437.89	-3.807
438.24	-3.789
438.59	-3.794
438.94	-3.851
439.29	-3.929
439.63	-4.029
439.98	-4.104
440.33	-4.158
440.68	-4.220
441.03	-4.212
441.37	-4.167
441.72	-4.075
442.07	-3.953
442.42	-3.809
442.76	-3.644
443.11	-3.480
443.46	-3.332
443.81	-3.206
444.16	-3.126
444.50	-3.099
444.85	-3.101
445.20	-3.158
445.55	-3.286
445.89	-3.451
446.24	-3.663
446.59	-3.909
446.94	-4.150
447.28	-4.417
447.63	-4.700
447.98	-4.961
448.32	-5.171
448.67	-5.377
449.02	-5.503
449.37	-5.604
449.71	-5.605
450.06	-5.563
450.41	-5.485
450.75	-5.456
451.10	-5.418
451.45	-5.414
451.79	-5.414
452.14	-5.404
452.49	-5.439
452.84	-5.460
453.18	-5.480
453.53	-5.510
453.88	-5.534
454.22	-5.497
454.57	-5.358
454.92	-5.174
455.26	-4.924
455.61	-4.708
455.95	-4.476
456.30	-4.247
456.65	-4.032
456.99	-3.817
457.34	-3.653
457.69	-3.524
458.03	-3.459
458.38	-3.463
458.73	-3.543
459.07	-3.678
459.42	-3.828
459.76	-4.045
460.11	-4.275
460.46	-4.530
460.80	-4.842
461.15	-5.135
461.49	-5.366
461.84	-5.595
462.19	-5.766
462.53	-5.841
462.88	-5.851
463.22	-5.838
463.57	-5.793
463.91	-5.743
464.26	-5.672
464.61	-5.546
464.95	-5.461
465.30	-5.419
465.64	-5.392
465.99	-5.455
466.33	-5.483
466.68	-5.590
467.02	-5.652
467.37	-5.723
467.71	-5.793
468.06	-5.904
468.41	-6.028
468.75	-6.147
469.10	-6.313
469.44	-6.478
469.79	-6.560
470.13	-6.666
470.48	-6.743
470.82	-6.859
471.17	-6.953
471.51	-7.050
471.86	-7.137
472.20	-7.253
472.55	-7.341
472.89	-7.366
473.23	-7.362
473.58	-7.363
473.92	-7.367
474.27	-7.362
474.61	-7.337
474.96	-7.332
475.30	-7.325
475.65	-7.298
475.99	-7.228
476.34	-7.191
476.68	-7.132
477.02	-7.062
477.37	-6.946
477.71	-6.777
478.06	-6.462
478.40	-5.968
478.75	-5.292
479.09	-4.609
479.43	-3.967
479.78	-3.414
480.12	-2.918
480.47	-2.496
480.81	-2.131
481.15	-1.799
481.50	-1.519
481.84	-1.287
482.19	-1.108
482.53	-1.006
482.87	-0.940
483.22	-0.932
483.56	-0.938
483.90	-0.986
484.25	-1.047
484.59	-1.135
484.94	-1.246
485.28	-1.377
485.62	-1.532
485.97	-1.694
486.31	-1.847
486.65	-2.002
487.00	-2.143
487.34	-2.303
487.68	-2.435
488.03	-2.564
488.37	-2.665
488.71	-2.765
489.06	-2.844
489.40	-2.923
489.74	-3.021
490.09	-3.149
490.43	-3.302
490.77	-3.508
491.11	-3.737
491.46	-3.981
491.80	-4.249
492.14	-4.518
492.49	-4.809
492.83	-5.127
493.17	-5.431
493.51	-5.723
493.86	-5.963
494.20	-6.145
494.54	-6.213
494.88	-6.198
495.23	-6.160
495.57	-6.097
495.91	-6.061
496.25	-6.050
496.60	-6.019
496.94	-6.033
497.28	-6.058
497.62	-6.120
497.97	-6.198
498.31	-6.285
498.65	-6.378
498.99	-6.464
499.33	-6.545
499.68	-6.590
500.02	-6.622
500.36	-6.683
500.70	-6.690
501.04	-6.705
501.39	-6.686
501.73	-6.675
502.07	-6.640
502.41	-6.589
502.75	-6.563
503.09	-6.503
503.44	-6.439
503.78	-6.361
504.12	-6.258
504.46	-6.159
504.80	-6.040
505.14	-5.949
505.49	-5.814
505.83	-5.701
506.17	-5.617
506.51	-5.504
506.85	-5.436
507.19	-5.384
507.53	-5.317
507.87	-5.276
508.22	-5.258
508.56	-5.267
508.90	-5.267
509.24	-5.310
509.58	-5.353
509.92	-5.374
510.26	-5.419
510.60	-5.471
510.94	-5.533
511.28	-5.599
511.63	-5.652
511.97	-5.680
512.31	-5.663
512.65	-5.618
512.99	-5.528
513.33	-5.403
513.67	-5.248
514.01	-5.074
514.35	-4.847
514.69	-4.585
515.03	-4.345
515.37	-4.125
515.71	-3.934
516.05	-3.792
516.39	-3.689
516.73	-3.625
517.07	-3.600
517.41	-3.628
517.75	-3.705
518.09	-3.828
518.43	-4.022
518.77	-4.230
519.11	-4.425
519.45	-4.635
519.79	-4.848
520.13	-5.004
520.47	-5.122
520.81	-5.164
521.15	-5.155
521.49	-5.088
521.83	-4.958
522.17	-4.763
522.51	-4.523
522.85	-4.229
523.19	-3.830
523.53	-3.341
523.87	-2.864
524.21	-2.423
524.55	-2.057
524.89	-1.730
525.23	-1.430
525.57	-1.186
525.91	-0.967
526.25	-0.793
526.58	-0.654
526.92	-0.577
527.26	-0.543
527.60	-0.581
527.94	-0.652
528.28	-0.741
528.62	-0.852
528.96	-0.973
529.30	-1.097
529.64	-1.237
529.97	-1.382
530.31	-1.552
530.65	-1.703
530.99	-1.849
531.33	-1.935
531.67	-1.995
532.01	-2.047
532.35	-2.117
532.68	-2.213
533.02	-2.331
533.36	-2.469
533.70	-2.611
534.04	-2.723
534.38	-2.866
534.71	-3.015
535.05	-3.170
535.39	-3.329
535.73	-3.446
536.07	-3.481
536.41	-3.416
536.74	-3.278
537.08	-3.094
537.42	-2.882
537.76	-2.672
538.10	-2.432
538.43	-2.211
538.77	-2.004
539.11	-1.815
539.45	-1.666
539.79	-1.552
540.12	-1.502
540.46	-1.502
540.80	-1.547
541.14	-1.632
541.47	-1.756
541.81	-1.909
542.15	-2.080
542.49	-2.287
542.82	-2.503
543.16	-2.721
543.50	-2.950
543.84	-3.187
544.17	-3.365
544.51	-3.523
544.85	-3.657
545.18	-3.800
545.52	-3.957
545.86	-4.132
546.20	-4.341
546.53	-4.552
546.87	-4.771
547.21	-5.001
547.54	-5.196
547.88	-5.399
548.22	-5.546
548.55	-5.662
548.89	-5.724
549.23	-5.779
549.56	-5.792
549.90	-5.748
550.24	-5.720
550.57	-5.693
550.91	-5.637
551.25	-5.596
551.58	-5.578
551.92	-5.618
552.26	-5.664
552.59	-5.744
552.93	-5.808
553.27	-5.897
553.60	-5.958
553.94	-6.014
554.27	-6.049
554.61	-6.109
554.95	-6.147
555.28	-6.192
555.62	-6.140
555.95	-6.112
556.29	-6.050
556.63	-5.961
556.96	-5.911
557.30	-5.842
557.63	-5.792
557.97	-5.737
558.31	-5.649
558.64	-5.587
558.98	-5.540
559.31	-5.546
559.65	-5.525
559.98	-5.490
560.32	-5.485
560.65	-5.404
560.99	-5.325
561.33	-5.196
561.66	-5.061
562.00	-4.955
562.33	-4.828
562.67	-4.684
563.00	-4.509
563.34	-4.359
563.67	-4.209
564.01	-4.053
564.34	-3.948
564.68	-3.861
565.01	-3.830
565.35	-3.798
565.68	-3.771
566.02	-3.746
566.35	-3.710
566.69	-3.702
567.02	-3.644
567.36	-3.594
567.69	-3.535
568.03	-3.468
568.36	-3.376
568.69	-3.274
569.03	-3.178
569.36	-3.061
569.70	-2.952
570.03	-2.840
570.37	-2.726
570.70	-2.668
571.04	-2.613
571.37	-2.606
571.70	-2.583
572.04	-2.566
572.37	-2.557
572.71	-2.577
573.04	-2.575
573.37	-2.614
573.71	-2.677
574.04	-2.755
574.38	-2.803
574.71	-2.900
575.04	-2.977
575.38	-3.033
575.71	-3.114
576.05	-3.226
576.38	-3.297
576.71	-3.416
577.05	-3.530
577.38	-3.589
577.71	-3.670
578.05	-3.761
578.38	-3.772
578.71	-3.768
579.05	-3.826
579.38	-3.861
579.71	-3.826
580.05	-3.826
580.38	-3.840
580.71	-3.798
581.05	-3.775
581.38	-3.748
581.71	-3.694
582.05	-3.682
582.38	-3.647
582.71	-3.568
583.04	-3.506
583.38	-3.423
583.71	-3.286
584.04	-3.128
584.38	-2.988
584.71	-2.854
585.04	-2.657
585.37	-2.500
585.71	-2.279
586.04	-2.105
586.37	-1.909
586.70	-1.708
587.04	-1.547
587.37	-1.475
587.70	-1.373
588.03	-1.290
588.37	-1.201
588.70	-1.157
589.03	-1.131
589.36	-1.132
589.69	-1.111
590.03	-1.130
590.36	-1.183
590.69	-1.172
591.02	-1.106
591.35	-1.050
591.69	-0.954
592.02	-0.856
592.35	-0.711
592.68	-0.531
593.01	-0.356
593.35	-0.175
593.68	-0.032
594.01	0.131
594.34	0.245
594.67	0.356
595.00	0.444
595.34	0.514
595.67	0.553
596.00	0.508
596.33	0.449
596.66	0.361
596.99	0.224
597.32	0.106
597.65	0.020
597.99	-0.071
598.32	-0.135
598.65	-0.188
598.98	-0.208
599.31	-0.142
599.64	-0.037
599.97	0.109
600.30	0.302
600.63	0.496
600.96	0.739
601.30	0.919
601.63	1.065
601.96	1.167
602.29	1.277
602.62	1.347
602.95	1.365
603.28	1.379
603.61	1.346
603.94	1.293
604.27	1.248
604.60	1.168
604.93	1.104
605.26	1.063
605.59	1.052
605.92	1.014
606.25	1.027
606.58	1.034
606.91	1.096
607.24	1.172
607.57	1.203
607.90	1.215
608.23	1.214
608.56	1.206
608.89	1.156
609.22	1.048
609.55	0.951
609.88	0.827
610.21	0.659
610.54	0.498
610.87	0.321
611.20	0.190
611.53	0.066
611.86	-0.024
612.19	-0.119
612.52	-0.166
612.85	-0.140
613.18	-0.129
613.51	-0.112
613.84	-0.037
614.17	-0.038
614.49	-0.057
614.82	-0.047
615.15	-0.032
615.48	-0.055
615.81	-0.062
616.14	-0.053
616.47	-0.053
616.80	-0.048
617.13	-0.069
617.46	-0.120
617.78	-0.169
618.11	-0.175
618.44	-0.203
618.77	-0.250
619.10	-0.231
619.43	-0.245
619.76	-0.247
620.09	-0.280
620.41	-0.293
620.74	-0.266
621.07	-0.268
621.40	-0.141
621.73	-0.035
622.06	0.095
622.38	0.274
622.71	0.424
623.04	0.626
623.37	0.799
623.70	0.975
624.02	1.119
624.35	1.252
624.68	1.440
625.01	1.549
625.34	1.659
625.66	1.710
625.99	1.779
626.32	1.760
626.65	1.689
626.98	1.642
627.30	1.618
627.63	1.584
627.96	1.564
628.29	1.502
628.61	1.473
628.94	1.382
629.27	1.340
629.60	1.282
629.92	1.308
630.25	1.321
630.58	1.354
630.91	1.362
631.23	1.436
631.56	1.455
631.89	1.459
632.21	1.417
632.54	1.453
632.87	1.451
633.19	1.460
633.52	1.443
633.85	1.418
634.18	1.339
634.50	1.264
634.83	1.146
635.16	1.034
635.48	0.982
635.81	0.874
636.14	0.744
636.46	0.640
636.79	0.521
637.11	0.409
637.44	0.356
637.77	0.273
638.09	0.171
