OOIBase32 Version 2.0.0.6 Data File
++++++++++++++++++++++++++++++++++++
Date: 01-24-2012, 17:46:13
User: Valued Ocean Optics Customer
Spectrometer Serial Number: USB2E2917
Spectrometer Channel: Master
Integration Time (msec): 7
Spectra Averaged: 10
Boxcar Smoothing: 5
Correct for Electrical Dark: Enabled
Time Normalized: Disabled
Dual-beam Reference: Disabled
Reference Channel: Master
Temperature: Not acquired
Spectrometer Type: S2000
ADC Type: USB2000
Number of Pixels in File: 2048
Graph Title: 
>>>>>Begin Spectral Data<<<<<
180.30	0.000
180.67	0.000
181.03	-63.105
181.40	-160838.095
181.77	-1061.054
182.14	408.352
182.51	-71.488
182.88	135.091
183.25	4.992
183.62	527.613
183.99	9.183
184.36	-12.814
184.73	-77.125
185.10	71.308
185.46	-20.188
185.83	42.242
186.20	-9.122
186.57	-45.031
186.94	-26.011
187.31	71.506
187.68	-135.542
188.05	114.012
188.42	-4.311
188.78	-1.599
189.15	1.135
189.52	35.445
189.89	21.987
190.26	7.471
190.63	8.088
191.00	20.955
191.37	-0.122
191.73	-20.100
192.10	-4.628
192.47	35.784
192.84	52.687
193.21	60.920
193.58	33.020
193.94	24.221
194.31	28.570
194.68	31.850
195.05	22.191
195.42	38.618
195.79	50.769
196.15	37.823
196.52	24.643
196.89	20.320
197.26	24.987
197.63	35.150
198.00	37.067
198.36	26.498
198.73	23.830
199.10	24.744
199.47	22.194
199.84	26.610
200.20	36.932
200.57	34.342
200.94	28.231
201.31	35.045
201.68	31.068
202.04	35.363
202.41	38.923
202.78	39.703
203.15	48.543
203.51	58.751
203.88	48.731
204.25	37.428
204.62	49.408
204.98	33.202
205.35	20.576
205.72	-9.882
206.09	0.736
206.46	-2.447
206.82	-14.684
207.19	-30.060
207.56	-58.175
207.92	-55.301
208.29	-86.553
208.66	-82.657
209.03	-36.660
209.39	-37.899
209.76	-22.423
210.13	-28.358
210.50	-25.202
210.86	-14.093
211.23	-13.494
211.60	-10.993
211.96	-11.819
212.33	10.240
212.70	12.378
213.07	1.387
213.43	-9.412
213.80	-13.014
214.17	-8.655
214.53	-3.462
214.90	-9.813
215.27	-4.434
215.63	10.868
216.00	9.397
216.37	4.488
216.74	7.118
217.10	18.044
217.47	45.955
217.84	44.649
218.20	19.212
218.57	13.750
218.94	22.141
219.30	17.818
219.67	9.616
220.04	18.003
220.40	12.651
220.77	8.951
221.13	13.343
221.50	2.743
221.87	9.493
222.23	5.884
222.60	8.700
222.97	2.080
223.33	-1.771
223.70	-2.358
224.07	-6.383
224.43	-4.396
224.80	-5.714
225.16	-5.544
225.53	-3.635
225.90	-4.758
226.26	-2.650
226.63	-4.060
226.99	-2.193
227.36	-1.024
227.73	-3.418
228.09	-5.950
228.46	-6.175
228.82	-3.377
229.19	-3.802
229.56	-4.372
229.92	-3.529
230.29	-3.136
230.65	-0.561
231.02	0.982
231.38	-0.206
231.75	0.745
232.12	2.573
232.48	3.226
232.85	2.963
233.21	2.401
233.58	1.441
233.94	-0.142
234.31	-0.956
234.68	-1.383
235.04	-3.464
235.41	-2.405
235.77	-0.894
236.14	-0.131
236.50	0.586
236.87	-1.655
237.23	-1.169
237.60	-1.709
237.96	0.182
238.33	0.693
238.69	0.024
239.06	0.285
239.42	0.674
239.79	0.043
240.15	-0.077
240.52	-0.628
240.88	-0.404
241.25	-1.015
241.61	-0.294
241.98	-1.174
242.34	-0.601
242.71	-0.005
243.07	-0.320
243.44	0.024
243.80	0.244
244.17	0.240
244.53	0.488
244.90	0.192
245.26	0.520
245.63	0.472
245.99	0.531
246.36	0.152
246.72	-0.285
247.09	-0.182
247.45	-0.607
247.81	-0.301
248.18	-0.103
248.54	-0.681
248.91	-0.802
249.27	-0.994
249.64	-0.779
250.00	-1.089
250.36	-1.115
250.73	-1.009
251.09	-1.049
251.46	-0.859
251.82	-0.898
252.19	-1.314
252.55	-0.261
252.91	0.204
253.28	1.099
253.64	1.377
254.01	1.532
254.37	1.077
254.73	0.969
255.10	1.157
255.46	1.344
255.83	1.249
256.19	1.147
256.55	0.935
256.92	0.775
257.28	0.595
257.65	0.580
258.01	1.016
258.37	1.232
258.74	1.300
259.10	1.328
259.46	1.430
259.83	1.296
260.19	1.441
260.55	1.516
260.92	1.799
261.28	1.666
261.64	1.589
262.01	1.455
262.37	1.731
262.73	1.672
263.10	1.041
263.46	0.391
263.82	0.400
264.19	0.507
264.55	0.631
264.91	0.786
265.28	0.722
265.64	0.425
266.00	-0.318
266.37	-0.194
266.73	-0.056
267.09	0.218
267.46	0.478
267.82	0.514
268.18	0.549
268.54	0.022
268.91	-0.393
269.27	-0.185
269.63	-0.033
270.00	0.665
270.36	0.600
270.72	0.273
271.08	0.483
271.45	0.462
271.81	0.145
272.17	0.005
272.53	0.309
272.90	0.511
273.26	0.346
273.62	0.267
273.98	-0.033
274.35	-0.058
274.71	0.095
275.07	-0.288
275.43	-0.593
275.80	-0.239
276.16	-0.525
276.52	-0.533
276.88	-0.458
277.25	-0.300
277.61	-0.385
277.97	-0.386
278.33	-0.527
278.69	-0.403
279.06	-0.314
279.42	-0.258
279.78	-0.650
280.14	-0.457
280.50	-0.671
280.87	-0.378
281.23	-0.283
281.59	-0.033
281.95	0.251
282.31	0.121
282.68	-0.036
283.04	0.236
283.40	0.225
283.76	0.385
284.12	0.477
284.48	0.507
284.85	0.172
285.21	0.024
285.57	-0.196
285.93	-0.262
286.29	-0.053
286.65	0.035
287.02	-0.147
287.38	-0.143
287.74	-0.170
288.10	-0.146
288.46	-0.099
288.82	0.015
289.18	0.042
289.54	0.093
289.91	-0.047
290.27	-0.213
290.63	-0.418
290.99	-0.042
291.35	0.256
291.71	0.296
292.07	0.357
292.43	0.369
292.79	0.470
293.16	0.530
293.52	0.637
293.88	0.654
294.24	0.400
294.60	0.691
294.96	0.271
295.32	0.223
295.68	0.251
296.04	-0.006
296.40	-0.054
296.76	-0.103
297.12	-0.259
297.49	-0.276
297.85	-0.284
298.21	-0.070
298.57	-0.217
298.93	-0.186
299.29	-0.359
299.65	-0.348
300.01	-0.100
300.37	0.014
300.73	-0.110
301.09	-0.203
301.45	-0.295
301.81	-0.471
302.17	-0.493
302.53	-0.502
302.89	-0.496
303.25	-0.393
303.61	-0.415
303.97	-0.633
304.33	-0.749
304.69	-0.673
305.05	-0.618
305.41	-0.570
305.77	-0.360
306.13	-0.252
306.49	-0.390
306.85	-0.274
307.21	-0.376
307.57	-0.535
307.93	-0.400
308.29	-0.400
308.65	-0.518
309.01	-0.519
309.37	-0.584
309.73	-0.748
310.09	-0.950
310.45	-0.910
310.81	-1.182
311.17	-1.222
311.53	-1.270
311.89	-1.521
312.25	-1.555
312.61	-1.629
312.96	-1.723
313.32	-1.852
313.68	-1.974
314.04	-1.839
314.40	-2.037
314.76	-1.972
315.12	-2.164
315.48	-2.299
315.84	-2.305
316.20	-2.470
316.56	-2.663
316.92	-2.659
317.27	-2.779
317.63	-2.731
317.99	-2.971
318.35	-2.885
318.71	-2.868
319.07	-2.731
319.43	-2.762
319.79	-2.796
320.15	-2.973
320.50	-2.905
320.86	-3.045
321.22	-3.085
321.58	-3.165
321.94	-3.167
322.30	-3.167
322.66	-3.251
323.01	-3.376
323.37	-3.236
323.73	-3.430
324.09	-3.414
324.45	-3.737
324.81	-3.795
325.17	-3.870
325.52	-3.983
325.88	-4.108
326.24	-4.250
326.60	-4.514
326.96	-4.619
327.31	-4.875
327.67	-4.693
328.03	-4.775
328.39	-4.745
328.75	-4.775
329.11	-4.737
329.46	-4.801
329.82	-4.620
330.18	-4.567
330.54	-4.571
330.90	-4.552
331.25	-4.325
331.61	-4.253
331.97	-4.203
332.33	-4.013
332.68	-3.890
333.04	-3.947
333.40	-3.835
333.76	-3.853
334.11	-3.869
334.47	-3.749
334.83	-3.782
335.19	-3.833
335.54	-3.909
335.90	-3.870
336.26	-3.894
336.62	-4.085
336.97	-4.222
337.33	-4.307
337.69	-4.488
338.05	-4.567
338.40	-4.524
338.76	-4.584
339.12	-4.647
339.48	-4.716
339.83	-4.772
340.19	-4.740
340.55	-4.670
340.90	-4.553
341.26	-4.376
341.62	-4.276
341.97	-4.273
342.33	-4.237
342.69	-4.131
343.04	-4.240
343.40	-4.276
343.76	-4.135
344.12	-4.064
344.47	-4.063
344.83	-4.051
345.19	-4.241
345.54	-4.323
345.90	-4.368
346.26	-4.481
346.61	-4.559
346.97	-4.551
347.32	-4.602
347.68	-4.874
348.04	-5.154
348.39	-5.155
348.75	-5.229
349.11	-5.323
349.46	-5.455
349.82	-5.514
350.18	-5.521
350.53	-5.546
350.89	-5.681
351.24	-5.611
351.60	-5.565
351.96	-5.434
352.31	-5.490
352.67	-5.445
353.02	-5.362
353.38	-5.170
353.74	-5.025
354.09	-4.922
354.45	-4.879
354.80	-4.760
355.16	-4.779
355.52	-4.674
355.87	-4.620
356.23	-4.526
356.58	-4.487
356.94	-4.474
357.29	-4.491
357.65	-4.442
358.00	-4.505
358.36	-4.524
358.72	-4.520
359.07	-4.539
359.43	-4.583
359.78	-4.582
360.14	-4.751
360.49	-4.844
360.85	-4.897
361.20	-5.045
361.56	-5.225
361.91	-5.295
362.27	-5.404
362.62	-5.447
362.98	-5.587
363.33	-5.650
363.69	-5.808
364.04	-5.791
364.40	-5.899
364.75	-5.919
365.11	-5.875
365.46	-5.898
365.82	-6.023
366.17	-6.052
366.53	-6.061
366.88	-6.015
367.24	-6.023
367.59	-5.943
367.95	-5.939
368.30	-5.868
368.66	-5.887
369.01	-5.881
369.37	-5.780
369.72	-5.596
370.08	-5.431
370.43	-5.407
370.78	-5.394
371.14	-5.342
371.49	-5.342
371.85	-5.289
372.20	-5.267
372.56	-5.291
372.91	-5.321
373.26	-5.424
373.62	-5.582
373.97	-5.717
374.33	-5.783
374.68	-5.820
375.03	-5.871
375.39	-5.903
375.74	-6.022
376.10	-5.996
376.45	-5.908
376.80	-5.860
377.16	-5.726
377.51	-5.568
377.87	-5.416
378.22	-5.265
378.57	-5.151
378.93	-5.081
379.28	-4.890
379.63	-4.658
379.99	-4.465
380.34	-4.321
380.70	-4.151
381.05	-4.039
381.40	-3.943
381.76	-3.938
382.11	-3.925
382.46	-3.867
382.82	-3.806
383.17	-3.865
383.52	-3.893
383.88	-3.977
384.23	-4.056
384.58	-4.155
384.94	-4.257
385.29	-4.350
385.64	-4.356
385.99	-4.426
386.35	-4.494
386.70	-4.552
387.05	-4.588
387.41	-4.582
387.76	-4.522
388.11	-4.434
388.47	-4.328
388.82	-4.231
389.17	-4.098
389.52	-3.997
389.88	-3.831
390.23	-3.661
390.58	-3.453
390.93	-3.256
391.29	-3.145
391.64	-3.092
391.99	-3.045
392.34	-3.029
392.70	-3.023
393.05	-3.057
393.40	-3.092
393.75	-3.141
394.11	-3.283
394.46	-3.434
394.81	-3.649
395.16	-3.769
395.52	-3.970
395.87	-4.233
396.22	-4.510
396.57	-4.787
396.92	-5.072
397.28	-5.289
397.63	-5.513
397.98	-5.697
398.33	-5.910
398.68	-6.007
399.04	-6.139
399.39	-6.225
399.74	-6.167
400.09	-6.131
400.44	-6.021
400.80	-5.907
401.15	-5.830
401.50	-5.719
401.85	-5.578
402.20	-5.448
402.55	-5.419
402.90	-5.393
403.26	-5.301
403.61	-5.335
403.96	-5.323
404.31	-5.366
404.66	-5.411
405.01	-5.457
405.36	-5.544
405.72	-5.649
406.07	-5.731
406.42	-5.779
406.77	-5.829
407.12	-5.906
407.47	-5.941
407.82	-5.988
408.17	-6.044
408.53	-6.064
408.88	-6.146
409.23	-6.207
409.58	-6.256
409.93	-6.321
410.28	-6.380
410.63	-6.448
410.98	-6.482
411.33	-6.456
411.68	-6.395
412.03	-6.360
412.38	-6.263
412.73	-6.037
413.09	-5.840
413.44	-5.619
413.79	-5.335
414.14	-4.995
414.49	-4.683
414.84	-4.395
415.19	-4.107
415.54	-3.823
415.89	-3.496
416.24	-3.259
416.59	-3.041
416.94	-2.834
417.29	-2.650
417.64	-2.505
417.99	-2.389
418.34	-2.266
418.69	-2.167
419.04	-2.090
419.39	-2.027
419.74	-1.973
420.09	-1.900
420.44	-1.892
420.79	-1.876
421.14	-1.885
421.49	-1.904
421.84	-1.936
422.19	-2.010
422.54	-2.057
422.89	-2.142
423.24	-2.272
423.59	-2.427
423.94	-2.620
424.29	-2.797
424.64	-2.987
424.99	-3.183
425.34	-3.364
425.68	-3.547
426.03	-3.706
426.38	-3.913
426.73	-4.068
427.08	-4.101
427.43	-4.124
427.78	-4.056
428.13	-4.010
428.48	-3.950
428.83	-3.918
429.18	-3.865
429.53	-3.817
429.87	-3.784
430.22	-3.726
430.57	-3.706
430.92	-3.745
431.27	-3.799
431.62	-3.905
431.97	-3.992
432.32	-4.111
432.67	-4.177
433.01	-4.291
433.36	-4.439
433.71	-4.544
434.06	-4.636
434.41	-4.672
434.76	-4.687
435.11	-4.619
435.45	-4.531
435.80	-4.417
436.15	-4.299
436.50	-4.197
436.85	-4.078
437.20	-3.954
437.54	-3.871
437.89	-3.813
438.24	-3.782
438.59	-3.784
438.94	-3.859
439.29	-3.933
439.63	-4.031
439.98	-4.105
440.33	-4.125
440.68	-4.155
441.03	-4.148
441.37	-4.087
441.72	-3.983
442.07	-3.856
442.42	-3.687
442.76	-3.485
443.11	-3.304
443.46	-3.155
443.81	-3.009
444.16	-2.923
444.50	-2.872
444.85	-2.848
445.20	-2.885
445.55	-2.988
445.89	-3.132
446.24	-3.314
446.59	-3.552
446.94	-3.780
447.28	-4.017
447.63	-4.280
447.98	-4.520
448.32	-4.722
448.67	-4.913
449.02	-5.006
449.37	-5.095
449.71	-5.079
450.06	-5.031
450.41	-4.930
450.75	-4.866
451.10	-4.797
451.45	-4.754
451.79	-4.737
452.14	-4.716
452.49	-4.737
452.84	-4.759
453.18	-4.730
453.53	-4.730
453.88	-4.731
454.22	-4.670
454.57	-4.527
454.92	-4.341
455.26	-4.083
455.61	-3.835
455.95	-3.606
456.30	-3.373
456.65	-3.155
456.99	-2.961
457.34	-2.794
457.69	-2.668
458.03	-2.596
458.38	-2.592
458.73	-2.646
459.07	-2.789
459.42	-2.964
459.76	-3.159
460.11	-3.373
460.46	-3.627
460.80	-3.919
461.15	-4.228
461.49	-4.448
461.84	-4.678
462.19	-4.866
462.53	-4.966
462.88	-4.998
463.22	-4.950
463.57	-4.904
463.91	-4.854
464.26	-4.785
464.61	-4.663
464.95	-4.586
465.30	-4.538
465.64	-4.511
465.99	-4.553
466.33	-4.584
466.68	-4.648
467.02	-4.742
467.37	-4.846
467.71	-4.932
468.06	-5.040
468.41	-5.185
468.75	-5.286
469.10	-5.466
469.44	-5.625
469.79	-5.702
470.13	-5.789
470.48	-5.876
470.82	-5.988
471.17	-6.046
471.51	-6.112
471.86	-6.173
472.20	-6.260
472.55	-6.349
472.89	-6.364
473.23	-6.379
473.58	-6.402
473.92	-6.405
474.27	-6.397
474.61	-6.359
474.96	-6.351
475.30	-6.345
475.65	-6.318
475.99	-6.251
476.34	-6.187
476.68	-6.115
477.02	-6.018
477.37	-5.889
477.71	-5.703
478.06	-5.394
478.40	-4.898
478.75	-4.231
479.09	-3.562
479.43	-2.938
479.78	-2.383
480.12	-1.886
480.47	-1.464
480.81	-1.081
481.15	-0.746
481.50	-0.456
481.84	-0.212
482.19	-0.017
482.53	0.100
482.87	0.173
483.22	0.186
483.56	0.175
483.90	0.122
484.25	0.054
484.59	-0.038
484.94	-0.148
485.28	-0.278
485.62	-0.428
485.97	-0.589
486.31	-0.727
486.65	-0.857
487.00	-0.964
487.34	-1.076
487.68	-1.163
488.03	-1.245
488.37	-1.327
488.71	-1.389
489.06	-1.444
489.40	-1.497
489.74	-1.561
490.09	-1.663
490.43	-1.796
490.77	-1.965
491.11	-2.160
491.46	-2.371
491.80	-2.601
492.14	-2.812
492.49	-3.044
492.83	-3.285
493.17	-3.518
493.51	-3.737
493.86	-3.909
494.20	-4.013
494.54	-4.020
494.88	-3.966
495.23	-3.849
495.57	-3.728
495.91	-3.642
496.25	-3.559
496.60	-3.480
496.94	-3.408
497.28	-3.357
497.62	-3.334
497.97	-3.315
498.31	-3.297
498.65	-3.256
498.99	-3.243
499.33	-3.200
499.68	-3.115
500.02	-3.040
500.36	-2.963
500.70	-2.870
501.04	-2.762
501.39	-2.626
501.73	-2.490
502.07	-2.337
502.41	-2.182
502.75	-2.034
503.09	-1.856
503.44	-1.674
503.78	-1.464
504.12	-1.251
504.46	-1.023
504.80	-0.786
505.14	-0.543
505.49	-0.300
505.83	-0.070
506.17	0.151
506.51	0.388
506.85	0.591
507.19	0.784
507.53	0.982
507.87	1.173
508.22	1.333
508.56	1.487
508.90	1.610
509.24	1.735
509.58	1.871
509.92	2.010
510.26	2.141
510.60	2.259
510.94	2.371
511.28	2.487
511.63	2.601
511.97	2.736
512.31	2.911
512.65	3.132
512.99	3.404
513.33	3.676
513.67	3.984
514.01	4.286
514.35	4.651
514.69	5.025
515.03	5.371
515.37	5.728
515.71	6.038
516.05	6.295
516.39	6.517
516.73	6.679
517.07	6.834
517.41	6.940
517.75	7.023
518.09	7.050
518.43	7.027
518.77	7.007
519.11	6.962
519.45	6.949
519.79	6.925
520.13	6.948
520.47	7.016
520.81	7.134
521.15	7.305
521.49	7.505
521.83	7.742
522.17	8.033
522.51	8.341
522.85	8.716
523.19	9.178
523.53	9.717
523.87	10.255
524.21	10.775
524.55	11.218
524.89	11.620
525.23	11.989
525.57	12.317
525.91	12.600
526.25	12.849
526.58	13.057
526.92	13.211
527.26	13.325
527.60	13.379
527.94	13.377
528.28	13.362
528.62	13.305
528.96	13.245
529.30	13.173
529.64	13.104
529.97	13.007
530.31	12.913
530.65	12.828
530.99	12.739
531.33	12.692
531.67	12.686
532.01	12.685
532.35	12.681
532.68	12.656
533.02	12.608
533.36	12.531
533.70	12.490
534.04	12.432
534.38	12.349
534.71	12.284
535.05	12.208
535.39	12.127
535.73	12.090
536.07	12.110
536.41	12.209
536.74	12.376
537.08	12.577
537.42	12.776
537.76	12.995
538.10	13.253
538.43	13.482
538.77	13.712
539.11	13.917
539.45	14.091
539.79	14.239
540.12	14.341
540.46	14.407
540.80	14.452
541.14	14.452
541.47	14.419
541.81	14.347
542.15	14.275
542.49	14.155
542.82	14.030
543.16	13.912
543.50	13.782
543.84	13.642
544.17	13.536
544.51	13.457
544.85	13.427
545.18	13.373
545.52	13.314
545.86	13.246
546.20	13.184
546.53	13.114
546.87	13.024
547.21	12.962
547.54	12.923
547.88	12.869
548.22	12.815
548.55	12.760
548.89	12.818
549.23	12.878
549.56	12.957
549.90	13.046
550.24	13.146
550.57	13.231
550.91	13.363
551.25	13.476
551.58	13.564
551.92	13.662
552.26	13.756
552.59	13.770
552.93	13.802
553.27	13.799
553.60	13.862
553.94	13.922
554.27	14.017
554.61	14.023
554.95	14.087
555.28	14.149
555.62	14.219
555.95	14.292
556.29	14.423
556.63	14.557
556.96	14.685
557.30	14.777
557.63	14.853
557.97	14.893
558.31	15.011
558.64	15.087
558.98	15.180
559.31	15.224
559.65	15.309
559.98	15.396
560.32	15.446
560.65	15.532
560.99	15.649
561.33	15.784
561.66	15.920
562.00	16.034
562.33	16.151
562.67	16.279
563.00	16.451
563.34	16.613
563.67	16.704
564.01	16.829
564.34	16.938
564.68	17.018
565.01	17.058
565.35	17.133
565.68	17.184
566.02	17.228
566.35	17.229
566.69	17.239
567.02	17.202
567.36	17.218
567.69	17.275
568.03	17.287
568.36	17.297
568.69	17.336
569.03	17.365
569.36	17.410
569.70	17.434
570.03	17.491
570.37	17.539
570.70	17.573
571.04	17.594
571.37	17.548
571.70	17.580
572.04	17.576
572.37	17.582
572.71	17.574
573.04	17.565
573.37	17.530
573.71	17.489
574.04	17.432
574.38	17.383
574.71	17.309
575.04	17.247
575.38	17.175
575.71	17.110
576.05	17.040
576.38	16.932
576.71	16.834
577.05	16.743
577.38	16.700
577.71	16.582
578.05	16.500
578.38	16.443
578.71	16.429
579.05	16.339
579.38	16.252
579.71	16.206
580.05	16.203
580.38	16.164
580.71	16.185
581.05	16.174
581.38	16.196
581.71	16.203
582.05	16.178
582.38	16.150
582.71	16.182
583.04	16.240
583.38	16.266
583.71	16.282
584.04	16.311
584.38	16.339
584.71	16.362
585.04	16.415
585.37	16.487
585.71	16.631
586.04	16.749
586.37	16.870
586.70	16.958
587.04	17.006
587.37	17.038
587.70	17.086
588.03	17.114
588.37	17.150
588.70	17.152
589.03	17.122
589.36	17.074
589.69	17.035
590.03	16.964
590.36	16.915
590.69	16.899
591.02	16.899
591.35	16.893
591.69	16.906
592.02	16.904
592.35	16.971
592.68	17.057
593.01	17.096
593.35	17.179
593.68	17.216
594.01	17.278
594.34	17.319
594.67	17.374
595.00	17.401
595.34	17.442
595.67	17.462
596.00	17.410
596.33	17.375
596.66	17.347
596.99	17.218
597.32	17.129
597.65	17.068
597.99	16.973
598.32	16.870
598.65	16.787
598.98	16.683
599.31	16.661
599.64	16.617
599.97	16.612
600.30	16.630
600.63	16.696
600.96	16.781
601.30	16.790
601.63	16.840
601.96	16.876
602.29	16.926
602.62	16.943
602.95	16.926
603.28	16.915
603.61	16.854
603.94	16.769
604.27	16.685
604.60	16.576
604.93	16.480
605.26	16.381
605.59	16.291
605.92	16.153
606.25	16.070
606.58	15.951
606.91	15.918
607.24	15.894
607.57	15.853
607.90	15.756
608.23	15.686
608.56	15.608
608.89	15.468
609.22	15.335
609.55	15.208
609.88	15.052
610.21	14.874
610.54	14.648
610.87	14.412
611.20	14.194
611.53	14.055
611.86	13.870
612.19	13.664
612.52	13.560
612.85	13.452
613.18	13.348
613.51	13.209
613.84	13.162
614.17	13.079
614.49	13.013
614.82	12.942
615.15	12.790
615.48	12.670
615.81	12.608
616.14	12.519
616.47	12.408
616.80	12.297
617.13	12.215
617.46	12.090
617.78	12.006
618.11	11.895
618.44	11.800
618.77	11.755
619.10	11.723
619.43	11.624
619.76	11.521
620.09	11.447
620.41	11.356
620.74	11.320
621.07	11.272
621.40	11.243
621.73	11.242
622.06	11.252
622.38	11.301
622.71	11.332
623.04	11.467
623.37	11.583
623.70	11.661
624.02	11.787
624.35	11.880
624.68	11.993
625.01	12.077
625.34	12.134
625.66	12.162
625.99	12.214
626.32	12.192
626.65	12.143
626.98	12.098
627.30	12.050
627.63	12.003
627.96	11.920
628.29	11.826
628.61	11.764
628.94	11.675
629.27	11.610
629.60	11.512
629.92	11.513
630.25	11.451
630.58	11.395
630.91	11.351
631.23	11.291
631.56	11.223
631.89	11.162
632.21	11.098
632.54	11.054
632.87	10.963
633.19	10.851
633.52	10.711
633.85	10.579
634.18	10.438
634.50	10.264
634.83	10.089
635.16	9.870
635.48	9.689
635.81	9.431
636.14	9.198
636.46	8.986
