OOIBase32 Version 2.0.0.6 Data File
++++++++++++++++++++++++++++++++++++
Date: 01-19-2012, 17:34:27
User: Valued Ocean Optics Customer
Spectrometer Serial Number: USB2E2917
Spectrometer Channel: Master
Integration Time (msec): 6
Spectra Averaged: 10
Boxcar Smoothing: 5
Correct for Electrical Dark: Enabled
Time Normalized: Disabled
Dual-beam Reference: Disabled
Reference Channel: Master
Temperature: Not acquired
Spectrometer Type: S2000
ADC Type: USB2000
Number of Pixels in File: 2048
Graph Title: 
>>>>>Begin Spectral Data<<<<<
180.30	0.000
180.67	0.000
181.03	116.652
181.40	-59.639
181.77	47.126
182.14	-426.358
182.51	-4.031
182.88	170.894
183.25	90.884
183.62	-8.556
183.99	769.332
184.36	11.476
184.73	167.546
185.10	270.823
185.46	54.758
185.83	70.744
186.20	401.648
186.57	-2.565
186.94	221.473
187.31	-33.309
187.68	39.434
188.05	20.367
188.42	25.859
188.78	31.664
189.15	19.097
189.52	27.789
189.89	17.742
190.26	19.818
190.63	16.951
191.00	16.991
191.37	21.822
191.73	23.012
192.10	7.351
192.47	11.719
192.84	9.081
193.21	-0.007
193.58	-21.828
193.94	-22.327
194.31	-38.090
194.68	-40.338
195.05	-44.458
195.42	-57.652
195.79	-77.126
196.15	-32.628
196.52	-18.466
196.89	-22.867
197.26	-18.843
197.63	-16.736
198.00	-11.500
198.36	-3.968
198.73	-6.593
199.10	0.604
199.47	-1.184
199.84	14.060
200.20	9.135
200.57	-15.893
200.94	0.090
201.31	1.180
201.68	11.884
202.04	5.738
202.41	-4.283
202.78	-6.948
203.15	-1.773
203.51	0.608
203.88	-5.992
204.25	3.250
204.62	3.702
204.98	-21.790
205.35	-14.611
205.72	-43.300
206.09	-50.502
206.46	-22.500
206.82	1.517
207.19	-12.085
207.56	-28.878
207.92	-19.585
208.29	-64.108
208.66	-53.532
209.03	-33.882
209.39	-47.858
209.76	-24.768
210.13	-15.393
210.50	-12.793
210.86	-19.277
211.23	-19.578
211.60	-2.922
211.96	-2.028
212.33	11.465
212.70	11.295
213.07	8.811
213.43	11.737
213.80	15.379
214.17	20.831
214.53	12.115
214.90	15.153
215.27	22.733
215.63	23.547
216.00	23.815
216.37	19.914
216.74	19.868
217.10	25.210
217.47	29.062
217.84	27.327
218.20	30.015
218.57	29.547
218.94	24.787
219.30	19.799
219.67	14.901
220.04	2.847
220.40	2.808
220.77	-1.932
221.13	-2.432
221.50	-4.095
221.87	-5.455
222.23	-12.782
222.60	-11.300
222.97	-12.237
223.33	-6.607
223.70	-4.549
224.07	-0.806
224.43	2.226
224.80	6.985
225.16	7.892
225.53	8.269
225.90	8.108
226.26	8.418
226.63	8.083
226.99	8.822
227.36	7.587
227.73	7.598
228.09	6.498
228.46	5.615
228.82	4.958
229.19	3.970
229.56	2.188
229.92	1.566
230.29	1.342
230.65	1.630
231.02	1.467
231.38	1.233
231.75	0.646
232.12	2.443
232.48	4.707
232.85	4.530
233.21	5.503
233.58	5.109
233.94	5.278
234.31	5.662
234.68	4.288
235.04	4.849
235.41	4.360
235.77	3.917
236.14	3.484
236.50	1.575
236.87	1.275
237.23	2.353
237.60	4.029
237.96	3.800
238.33	4.078
238.69	4.221
239.06	3.665
239.42	3.930
239.79	4.259
240.15	4.721
240.52	5.030
240.88	4.998
241.25	4.591
241.61	4.425
241.98	4.438
242.34	4.442
242.71	4.512
243.07	4.480
243.44	4.437
243.80	4.073
244.17	3.768
244.53	3.760
244.90	3.388
245.26	3.457
245.63	3.546
245.99	3.469
246.36	3.536
246.72	3.542
247.09	3.639
247.45	3.933
247.81	4.071
248.18	3.984
248.54	3.859
248.91	4.494
249.27	4.090
249.64	3.911
250.00	4.180
250.36	3.679
250.73	3.585
251.09	3.493
251.46	3.435
251.82	3.735
252.19	3.934
252.55	4.106
252.91	3.726
253.28	3.954
253.64	4.014
254.01	4.205
254.37	4.126
254.73	4.229
255.10	3.890
255.46	3.559
255.83	3.425
256.19	3.828
256.55	3.739
256.92	3.862
257.28	3.643
257.65	3.480
258.01	3.563
258.37	3.743
258.74	3.629
259.10	3.695
259.46	3.653
259.83	3.754
260.19	3.594
260.55	3.440
260.92	3.229
261.28	3.631
261.64	3.922
262.01	3.763
262.37	3.680
262.73	3.907
263.10	4.165
263.46	4.029
263.82	3.661
264.19	3.417
264.55	3.595
264.91	3.752
265.28	3.675
265.64	3.649
266.00	3.509
266.37	3.297
266.73	3.265
267.09	3.254
267.46	3.269
267.82	3.593
268.18	3.431
268.54	3.410
268.91	3.515
269.27	3.335
269.63	3.256
270.00	3.407
270.36	3.444
270.72	3.474
271.08	3.288
271.45	3.706
271.81	3.681
272.17	4.123
272.53	4.100
272.90	3.912
273.26	3.853
273.62	3.698
273.98	3.497
274.35	3.602
274.71	3.595
275.07	3.446
275.43	3.144
275.80	2.924
276.16	2.760
276.52	2.972
276.88	2.966
277.25	3.032
277.61	3.224
277.97	3.271
278.33	3.308
278.69	3.099
279.06	3.285
279.42	3.404
279.78	3.294
280.14	3.146
280.50	2.997
280.87	3.125
281.23	3.054
281.59	2.917
281.95	3.009
282.31	3.039
282.68	3.135
283.04	3.096
283.40	2.985
283.76	3.164
284.12	3.366
284.48	3.354
284.85	3.100
285.21	3.137
285.57	3.380
285.93	3.275
286.29	3.248
286.65	3.351
287.02	3.330
287.38	3.310
287.74	3.317
288.10	3.220
288.46	3.308
288.82	3.625
289.18	3.815
289.54	3.581
289.91	3.679
290.27	3.720
290.63	3.669
290.99	3.710
291.35	3.717
291.71	3.671
292.07	3.466
292.43	3.554
292.79	3.444
293.16	3.372
293.52	3.382
293.88	3.502
294.24	3.520
294.60	3.491
294.96	3.552
295.32	3.606
295.68	3.639
296.04	3.960
296.40	3.801
296.76	3.767
297.12	3.605
297.49	3.752
297.85	3.640
298.21	3.641
298.57	3.659
298.93	3.661
299.29	3.567
299.65	3.573
300.01	3.458
300.37	3.601
300.73	3.710
301.09	3.777
301.45	3.674
301.81	3.647
302.17	3.758
302.53	3.632
302.89	3.572
303.25	3.583
303.61	3.529
303.97	3.502
304.33	3.399
304.69	3.338
305.05	3.542
305.41	3.526
305.77	3.590
306.13	3.584
306.49	3.708
306.85	3.709
307.21	3.718
307.57	3.773
307.93	3.726
308.29	3.833
308.65	3.868
309.01	3.868
309.37	3.903
309.73	3.880
310.09	3.781
310.45	3.793
310.81	3.858
311.17	4.026
311.53	3.984
311.89	4.007
312.25	3.885
312.61	4.081
312.96	3.991
313.32	4.080
313.68	4.093
314.04	4.053
314.40	4.106
314.76	4.119
315.12	3.963
315.48	4.037
315.84	4.008
316.20	4.151
316.56	3.917
316.92	4.082
317.27	3.912
317.63	3.970
317.99	4.106
318.35	4.125
318.71	4.082
319.07	4.093
319.43	4.097
319.79	4.128
320.15	4.200
320.50	4.285
320.86	4.195
321.22	4.359
321.58	4.388
321.94	4.386
322.30	4.275
322.66	4.384
323.01	4.503
323.37	4.547
323.73	4.574
324.09	4.435
324.45	4.361
324.81	4.300
325.17	4.124
325.52	4.093
325.88	4.145
326.24	4.289
326.60	4.193
326.96	4.144
327.31	4.096
327.67	4.120
328.03	4.135
328.39	4.269
328.75	4.307
329.11	4.398
329.46	4.414
329.82	4.375
330.18	4.294
330.54	4.417
330.90	4.424
331.25	4.456
331.61	4.527
331.97	4.589
332.33	4.507
332.68	4.482
333.04	4.527
333.40	4.538
333.76	4.637
334.11	4.639
334.47	4.562
334.83	4.631
335.19	4.688
335.54	4.671
335.90	4.681
336.26	4.702
336.62	4.746
336.97	4.714
337.33	4.663
337.69	4.539
338.05	4.513
338.40	4.517
338.76	4.367
339.12	4.319
339.48	4.230
339.83	4.330
340.19	4.374
340.55	4.447
340.90	4.471
341.26	4.548
341.62	4.587
341.97	4.757
342.33	4.775
342.69	4.940
343.04	5.020
343.40	5.137
343.76	5.036
344.12	5.059
344.47	4.959
344.83	5.102
345.19	5.162
345.54	5.259
345.90	5.182
346.26	5.208
346.61	5.181
346.97	5.153
347.32	5.100
347.68	5.187
348.04	5.233
348.39	5.360
348.75	5.249
349.11	5.267
349.46	5.230
349.82	5.255
350.18	5.237
350.53	5.227
350.89	5.246
351.24	5.332
351.60	5.316
351.96	5.203
352.31	5.207
352.67	5.309
353.02	5.300
353.38	5.333
353.74	5.377
354.09	5.442
354.45	5.510
354.80	5.522
355.16	5.534
355.52	5.582
355.87	5.612
356.23	5.668
356.58	5.661
356.94	5.662
357.29	5.645
357.65	5.624
358.00	5.611
358.36	5.591
358.72	5.578
359.07	5.508
359.43	5.470
359.78	5.511
360.14	5.463
360.49	5.464
360.85	5.474
361.20	5.481
361.56	5.478
361.91	5.548
362.27	5.531
362.62	5.563
362.98	5.614
363.33	5.684
363.69	5.679
364.04	5.671
364.40	5.663
364.75	5.690
365.11	5.703
365.46	5.734
365.82	5.743
366.17	5.778
366.53	5.790
366.88	5.798
367.24	5.765
367.59	5.779
367.95	5.851
368.30	5.872
368.66	5.874
369.01	5.888
369.37	5.892
369.72	5.834
370.08	5.842
370.43	5.878
370.78	5.889
371.14	5.907
371.49	5.887
371.85	5.887
372.20	5.827
372.56	5.847
372.91	5.814
373.26	5.882
373.62	5.924
373.97	5.949
374.33	5.950
374.68	5.939
375.03	5.933
375.39	5.986
375.74	5.993
376.10	6.027
376.45	5.986
376.80	6.021
377.16	6.009
377.51	6.008
377.87	5.979
378.22	5.977
378.57	5.978
378.93	5.959
379.28	6.037
379.63	6.025
379.99	6.074
380.34	6.142
380.70	6.137
381.05	6.134
381.40	6.166
381.76	6.219
382.11	6.216
382.46	6.260
382.82	6.287
383.17	6.211
383.52	6.215
383.88	6.224
384.23	6.178
384.58	6.250
384.94	6.232
385.29	6.233
385.64	6.202
385.99	6.216
386.35	6.192
386.70	6.221
387.05	6.254
387.41	6.264
387.76	6.238
388.11	6.268
388.47	6.249
388.82	6.260
389.17	6.268
389.52	6.271
389.88	6.261
390.23	6.268
390.58	6.266
390.93	6.275
391.29	6.259
391.64	6.273
391.99	6.254
392.34	6.253
392.70	6.241
393.05	6.231
393.40	6.246
393.75	6.265
394.11	6.275
394.46	6.277
394.81	6.238
395.16	6.254
395.52	6.270
395.87	6.288
396.22	6.284
396.57	6.342
396.92	6.364
397.28	6.391
397.63	6.400
397.98	6.406
398.33	6.431
398.68	6.455
399.04	6.462
399.39	6.500
399.74	6.484
400.09	6.486
400.44	6.473
400.80	6.443
401.15	6.434
401.50	6.444
401.85	6.470
402.20	6.467
402.55	6.505
402.90	6.503
403.26	6.474
403.61	6.516
403.96	6.523
404.31	6.513
404.66	6.558
405.01	6.586
405.36	6.596
405.72	6.591
406.07	6.580
406.42	6.599
406.77	6.624
407.12	6.625
407.47	6.641
407.82	6.677
408.17	6.695
408.53	6.718
408.88	6.728
409.23	6.707
409.58	6.706
409.93	6.730
410.28	6.727
410.63	6.711
410.98	6.698
411.33	6.695
411.68	6.667
412.03	6.656
412.38	6.655
412.73	6.635
413.09	6.652
413.44	6.664
413.79	6.651
414.14	6.624
414.49	6.614
414.84	6.631
415.19	6.604
415.54	6.589
415.89	6.580
416.24	6.547
416.59	6.528
416.94	6.523
417.29	6.494
417.64	6.492
417.99	6.508
418.34	6.527
418.69	6.531
419.04	6.536
419.39	6.543
419.74	6.555
420.09	6.564
420.44	6.579
420.79	6.583
421.14	6.618
421.49	6.636
421.84	6.637
422.19	6.636
422.54	6.642
422.89	6.644
423.24	6.652
423.59	6.664
423.94	6.686
424.29	6.714
424.64	6.736
424.99	6.737
425.34	6.743
425.68	6.771
426.03	6.812
426.38	6.846
426.73	6.900
427.08	6.942
427.43	6.965
427.78	6.978
428.13	6.976
428.48	7.004
428.83	7.018
429.18	7.034
429.53	7.028
429.87	7.015
430.22	6.997
430.57	6.987
430.92	6.979
431.27	6.989
431.62	6.989
431.97	6.998
432.32	7.009
432.67	7.019
433.01	7.048
433.36	7.039
433.71	7.054
434.06	7.072
434.41	7.080
434.76	7.095
435.11	7.114
435.45	7.117
435.80	7.110
436.15	7.099
436.50	7.096
436.85	7.064
437.20	7.091
437.54	7.099
437.89	7.107
438.24	7.124
438.59	7.144
438.94	7.132
439.29	7.156
439.63	7.180
439.98	7.186
440.33	7.189
440.68	7.211
441.03	7.207
441.37	7.223
441.72	7.223
442.07	7.230
442.42	7.222
442.76	7.220
443.11	7.225
443.46	7.235
443.81	7.241
444.16	7.254
444.50	7.258
444.85	7.273
445.20	7.268
445.55	7.293
445.89	7.291
446.24	7.298
446.59	7.337
446.94	7.356
447.28	7.373
447.63	7.410
447.98	7.446
448.32	7.489
448.67	7.522
449.02	7.554
449.37	7.556
449.71	7.592
450.06	7.621
450.41	7.633
450.75	7.643
451.10	7.658
451.45	7.662
451.79	7.678
452.14	7.680
452.49	7.688
452.84	7.707
453.18	7.741
453.53	7.753
453.88	7.773
454.22	7.767
454.57	7.779
454.92	7.781
455.26	7.783
455.61	7.784
455.95	7.773
456.30	7.768
456.65	7.759
456.99	7.761
457.34	7.759
457.69	7.765
458.03	7.778
458.38	7.778
458.73	7.786
459.07	7.798
459.42	7.808
459.76	7.841
460.11	7.868
460.46	7.896
460.80	7.911
461.15	7.959
461.49	7.975
461.84	8.006
462.19	8.050
462.53	8.088
462.88	8.114
463.22	8.127
463.57	8.133
463.91	8.127
464.26	8.149
464.61	8.173
464.95	8.162
465.30	8.184
465.64	8.196
465.99	8.200
466.33	8.196
466.68	8.212
467.02	8.229
467.37	8.239
467.71	8.273
468.06	8.283
468.41	8.311
468.75	8.326
469.10	8.336
469.44	8.338
469.79	8.348
470.13	8.384
470.48	8.401
470.82	8.422
471.17	8.451
471.51	8.456
471.86	8.473
472.20	8.477
472.55	8.490
472.89	8.514
473.23	8.530
473.58	8.536
473.92	8.528
474.27	8.539
474.61	8.545
474.96	8.546
475.30	8.563
475.65	8.557
475.99	8.568
476.34	8.577
476.68	8.594
477.02	8.603
477.37	8.605
477.71	8.627
478.06	8.627
478.40	8.630
478.75	8.654
479.09	8.702
479.43	8.859
479.78	9.050
480.12	9.255
480.47	9.456
480.81	9.675
481.15	9.897
481.50	10.103
481.84	10.348
482.19	10.635
482.53	10.903
482.87	11.119
483.22	11.186
483.56	11.132
483.90	11.005
484.25	10.830
484.59	10.614
484.94	10.374
485.28	10.114
485.62	9.824
485.97	9.498
486.31	9.196
486.65	8.959
487.00	8.790
487.34	8.698
487.68	8.681
488.03	8.693
488.37	8.725
488.71	8.774
489.06	8.833
489.40	8.879
489.74	8.920
490.09	8.966
490.43	9.003
490.77	9.045
491.11	9.096
491.46	9.119
491.80	9.129
492.14	9.142
492.49	9.153
492.83	9.171
493.17	9.190
493.51	9.224
493.86	9.258
494.20	9.291
494.54	9.326
494.88	9.337
495.23	9.356
495.57	9.379
495.91	9.407
496.25	9.415
496.60	9.432
496.94	9.452
497.28	9.486
497.62	9.517
497.97	9.542
498.31	9.565
498.65	9.608
498.99	9.647
499.33	9.675
499.68	9.694
500.02	9.722
500.36	9.749
500.70	9.787
501.04	9.806
501.39	9.828
501.73	9.840
502.07	9.876
502.41	9.890
502.75	9.896
503.09	9.922
503.44	9.933
503.78	9.977
504.12	9.988
504.46	10.013
504.80	10.032
505.14	10.035
505.49	10.074
505.83	10.092
506.17	10.109
506.51	10.137
506.85	10.148
507.19	10.172
507.53	10.184
507.87	10.229
508.22	10.241
508.56	10.257
508.90	10.297
509.24	10.314
509.58	10.343
509.92	10.398
510.26	10.437
510.60	10.468
510.94	10.511
511.28	10.556
511.63	10.605
511.97	10.640
512.31	10.679
512.65	10.722
512.99	10.750
513.33	10.781
513.67	10.802
514.01	10.834
514.35	10.867
514.69	10.889
515.03	10.903
515.37	10.891
515.71	10.923
516.05	10.944
516.39	10.959
516.73	10.978
517.07	10.997
517.41	11.022
517.75	11.046
518.09	11.093
518.43	11.136
518.77	11.166
519.11	11.211
519.45	11.236
519.79	11.289
520.13	11.327
520.47	11.393
520.81	11.440
521.15	11.466
521.49	11.500
521.83	11.521
522.17	11.531
522.51	11.545
522.85	11.563
523.19	11.605
523.53	11.649
523.87	11.732
524.21	11.817
524.55	11.943
524.89	12.091
525.23	12.239
525.57	12.375
525.91	12.531
526.25	12.685
526.58	12.830
526.92	12.972
527.26	13.061
527.60	13.067
527.94	12.983
528.28	12.817
528.62	12.599
528.96	12.382
529.30	12.280
529.64	12.155
529.97	12.024
530.31	11.894
530.65	11.759
530.99	11.665
531.33	11.649
531.67	11.732
532.01	11.878
532.35	12.048
532.68	12.214
533.02	12.240
533.36	12.268
533.70	12.291
534.04	12.310
534.38	12.319
534.71	12.343
535.05	12.362
535.39	12.370
535.73	12.378
536.07	12.419
536.41	12.450
536.74	12.469
537.08	12.505
537.42	12.543
537.76	12.568
538.10	12.608
538.43	12.632
538.77	12.651
539.11	12.675
539.45	12.698
539.79	12.716
540.12	12.716
540.46	12.728
540.80	12.717
541.14	12.705
541.47	12.708
541.81	12.705
542.15	12.694
542.49	12.689
542.82	12.687
543.16	12.686
543.50	12.692
543.84	12.714
544.17	12.735
544.51	12.762
544.85	12.806
545.18	12.823
545.52	12.866
545.86	12.904
546.20	12.949
546.53	12.988
546.87	13.029
547.21	13.048
547.54	13.078
547.88	13.103
548.22	13.157
548.55	13.177
548.89	13.236
549.23	13.243
549.56	13.274
549.90	13.292
550.24	13.306
550.57	13.331
550.91	13.350
551.25	13.364
551.58	13.397
551.92	13.398
552.26	13.427
552.59	13.419
552.93	13.447
553.27	13.471
553.60	13.504
553.94	13.546
554.27	13.559
554.61	13.597
554.95	13.628
555.28	13.637
555.62	13.655
555.95	13.655
556.29	13.684
556.63	13.691
556.96	13.717
557.30	13.724
557.63	13.709
557.97	13.745
558.31	13.749
558.64	13.745
558.98	13.782
559.31	13.810
559.65	13.834
559.98	13.847
560.32	13.868
560.65	13.869
560.99	13.882
561.33	13.907
561.66	13.880
562.00	13.885
562.33	13.900
562.67	13.874
563.00	13.857
563.34	13.851
563.67	13.849
564.01	13.828
564.34	13.834
564.68	13.818
565.01	13.798
565.35	13.795
565.68	13.790
566.02	13.799
566.35	13.827
566.69	13.831
567.02	13.839
567.36	13.835
567.69	13.853
568.03	13.837
568.36	13.854
568.69	13.854
569.03	13.870
569.36	13.866
569.70	13.870
570.03	13.850
570.37	13.856
570.70	13.852
571.04	13.864
571.37	13.875
571.70	13.909
572.04	13.907
572.37	13.917
572.71	13.919
573.04	13.944
573.37	13.936
573.71	13.958
574.04	13.973
574.38	14.003
574.71	14.027
575.04	14.030
575.38	14.027
575.71	14.076
576.05	14.125
576.38	14.160
576.71	14.190
577.05	14.229
577.38	14.259
577.71	14.300
578.05	14.341
578.38	14.371
578.71	14.400
579.05	14.425
579.38	14.413
579.71	14.425
580.05	14.458
580.38	14.456
580.71	14.467
581.05	14.460
581.38	14.467
581.71	14.462
582.05	14.460
582.38	14.467
582.71	14.477
583.04	14.502
583.38	14.521
583.71	14.479
584.04	14.506
584.38	14.525
584.71	14.553
585.04	14.547
585.37	14.543
585.71	14.550
586.04	14.542
586.37	14.564
586.70	14.556
587.04	14.538
587.37	14.540
587.70	14.546
588.03	14.529
588.37	14.530
588.70	14.569
589.03	14.589
589.36	14.596
589.69	14.615
590.03	14.607
590.36	14.649
590.69	14.673
591.02	14.718
591.35	14.712
591.69	14.739
592.02	14.768
592.35	14.729
592.68	14.739
593.01	14.741
593.35	14.733
593.68	14.732
594.01	14.729
594.34	14.739
594.67	14.733
595.00	14.735
595.34	14.734
595.67	14.710
596.00	14.730
596.33	14.737
596.66	14.767
596.99	14.814
597.32	14.848
597.65	14.847
597.99	14.846
598.32	14.856
598.65	14.907
598.98	14.933
599.31	14.968
599.64	14.991
599.97	15.000
600.30	14.983
600.63	14.973
600.96	14.943
601.30	14.930
601.63	14.941
601.96	14.947
602.29	14.911
602.62	14.913
602.95	14.920
603.28	14.911
603.61	14.937
603.94	14.980
604.27	15.009
604.60	15.057
604.93	15.082
605.26	15.094
605.59	15.100
605.92	15.177
606.25	15.207
606.58	15.248
606.91	15.274
607.24	15.248
607.57	15.259
607.90	15.258
608.23	15.249
608.56	15.275
608.89	15.313
609.22	15.346
609.55	15.323
609.88	15.328
610.21	15.343
610.54	15.373
610.87	15.427
611.20	15.441
611.53	15.447
611.86	15.496
612.19	15.528
612.52	15.549
612.85	15.588
613.18	15.609
613.51	15.650
613.84	15.648
614.17	15.682
614.49	15.691
614.82	15.709
615.15	15.761
615.48	15.730
615.81	15.700
616.14	15.701
616.47	15.691
616.80	15.718
617.13	15.732
617.46	15.769
617.78	15.778
618.11	15.777
618.44	15.814
618.77	15.806
619.10	15.873
619.43	15.924
619.76	15.925
620.09	15.934
620.41	15.927
620.74	15.937
621.07	15.940
621.40	15.943
621.73	15.970
622.06	15.960
622.38	15.988
622.71	15.980
623.04	15.993
623.37	16.015
623.70	16.040
624.02	16.027
624.35	16.005
624.68	15.993
625.01	15.971
625.34	15.965
625.66	15.954
625.99	15.934
626.32	15.956
626.65	15.967
626.98	15.974
627.30	16.006
627.63	16.023
627.96	16.064
628.29	16.090
628.61	16.141
628.94	16.161
629.27	16.204
629.60	16.243
629.92	16.263
630.25	16.282
630.58	16.311
630.91	16.322
631.23	16.362
631.56	16.367
631.89	16.367
632.21	16.378
632.54	16.411
632.87	16.402
633.19	16.404
633.52	16.408
633.85	16.429
634.18	16.431
634.50	16.414
634.83	16.396
635.16	16.375
635.48	16.389
635.81	16.402
636.14	16.453
636.46	16.441
636.79	16.479
637.11	16.498
637.44	16.500
637.77	16.528
638.09	16.572
638.42	16.602
638.75	16.633
639.07	16.668
639.40	16.663
639.73	16.608
640.05	16.640
640.38	16.644
640.70	16.624
641.03	16.610
641.36	16.601
641.68	16.623
642.01	16.619
642.33	16.622
642.66	16.611
642.98	16.630
643.31	16.641
643.64	16.632
643.96	16.602
644.29	16.564
644.61	16.571
644.94	16.555
645.26	16.516
645.59	16.528
645.91	16.507
646.24	16.496
646.56	16.439
646.89	16.379
647.22	16.346
647.54	16.329
647.87	16.377
648.19	16.349
648.52	16.329
648.84	16.346
649.17	16.337
649.49	16.343
