OOIBase32 Version 2.0.0.6 Data File
++++++++++++++++++++++++++++++++++++
Date: 01-19-2012, 17:33:56
User: Valued Ocean Optics Customer
Spectrometer Serial Number: USB2E2917
Spectrometer Channel: Master
Integration Time (msec): 6
Spectra Averaged: 10
Boxcar Smoothing: 5
Correct for Electrical Dark: Enabled
Time Normalized: Disabled
Dual-beam Reference: Disabled
Reference Channel: Master
Temperature: Not acquired
Spectrometer Type: S2000
ADC Type: USB2000
Number of Pixels in File: 2048
Graph Title: 
>>>>>Begin Spectral Data<<<<<
180.30	0.000
180.67	0.000
181.03	74.751
181.40	-81.041
181.77	86.547
182.14	85.079
182.51	29.920
182.88	114.307
183.25	290.528
183.62	18.625
183.99	-349.579
184.36	-31.191
184.73	152.110
185.10	180.128
185.46	97.026
185.83	123.191
186.20	640.140
186.57	135.024
186.94	112.999
187.31	-102.482
187.68	-2.466
188.05	-2.088
188.42	18.717
188.78	3.042
189.15	-14.379
189.52	7.702
189.89	10.650
190.26	7.791
190.63	8.759
191.00	0.771
191.37	5.103
191.73	6.323
192.10	-3.869
192.47	-3.022
192.84	9.618
193.21	14.451
193.58	0.852
193.94	-9.990
194.31	-19.980
194.68	-17.810
195.05	-10.211
195.42	-20.645
195.79	-23.993
196.15	-7.416
196.52	-5.876
196.89	-14.399
197.26	-19.668
197.63	-24.465
198.00	-12.213
198.36	16.080
198.73	0.059
199.10	0.221
199.47	5.764
199.84	10.007
200.20	13.936
200.57	8.925
200.94	15.530
201.31	18.612
201.68	21.621
202.04	10.632
202.41	-15.198
202.78	-8.605
203.15	-6.750
203.51	-4.086
203.88	-4.198
204.25	-1.719
204.62	7.296
204.98	-3.062
205.35	0.726
205.72	-2.285
206.09	0.082
206.46	21.173
206.82	14.280
207.19	0.272
207.56	-14.031
207.92	1.158
208.29	-19.279
208.66	-35.342
209.03	-34.771
209.39	-54.200
209.76	-32.576
210.13	-26.109
210.50	-19.986
210.86	-7.069
211.23	6.398
211.60	11.872
211.96	3.717
212.33	5.666
212.70	6.593
213.07	7.128
213.43	13.962
213.80	4.364
214.17	-0.421
214.53	-6.964
214.90	-21.497
215.27	-25.137
215.63	-21.524
216.00	-14.220
216.37	-12.912
216.74	-10.841
217.10	-12.985
217.47	-12.425
217.84	-5.663
218.20	2.870
218.57	3.344
218.94	6.821
219.30	3.378
219.67	2.205
220.04	-5.220
220.40	-5.145
220.77	-7.545
221.13	-2.622
221.50	-4.403
221.87	-5.348
222.23	-6.794
222.60	-4.272
222.97	-2.144
223.33	7.092
223.70	7.516
224.07	9.390
224.43	7.878
224.80	7.029
225.16	7.991
225.53	8.925
225.90	9.851
226.26	9.293
226.63	7.299
226.99	8.010
227.36	6.901
227.73	6.044
228.09	4.154
228.46	4.847
228.82	5.482
229.19	3.883
229.56	2.409
229.92	0.369
230.29	0.127
230.65	1.402
231.02	0.735
231.38	0.093
231.75	0.855
232.12	3.044
232.48	3.042
232.85	3.838
233.21	5.500
233.58	5.639
233.94	6.627
234.31	7.994
234.68	7.020
235.04	6.895
235.41	6.731
235.77	5.117
236.14	4.808
236.50	4.687
236.87	3.520
237.23	3.924
237.60	4.272
237.96	4.269
238.33	4.282
238.69	4.572
239.06	3.733
239.42	3.431
239.79	4.258
240.15	4.592
240.52	4.897
240.88	4.982
241.25	4.663
241.61	4.830
241.98	4.903
242.34	4.429
242.71	4.531
243.07	4.601
243.44	4.597
243.80	4.563
244.17	4.518
244.53	4.338
244.90	4.192
245.26	4.243
245.63	4.208
245.99	4.123
246.36	4.410
246.72	4.429
247.09	4.577
247.45	4.928
247.81	4.760
248.18	4.570
248.54	4.696
248.91	4.847
249.27	4.491
249.64	4.431
250.00	4.644
250.36	4.173
250.73	3.964
251.09	4.256
251.46	3.957
251.82	4.243
252.19	4.088
252.55	3.932
252.91	4.264
253.28	4.839
253.64	4.920
254.01	5.036
254.37	5.355
254.73	5.510
255.10	5.138
255.46	5.153
255.83	4.849
256.19	4.952
256.55	4.975
256.92	4.697
257.28	4.624
257.65	4.528
258.01	4.458
258.37	4.391
258.74	4.498
259.10	4.560
259.46	4.500
259.83	4.633
260.19	4.631
260.55	4.472
260.92	4.408
261.28	4.400
261.64	4.640
262.01	4.601
262.37	4.533
262.73	4.301
263.10	4.283
263.46	4.245
263.82	4.205
264.19	3.900
264.55	3.887
264.91	4.343
265.28	4.454
265.64	4.346
266.00	4.170
266.37	4.094
266.73	4.237
267.09	4.193
267.46	4.250
267.82	4.279
268.18	4.197
268.54	4.157
268.91	4.152
269.27	3.920
269.63	3.859
270.00	4.202
270.36	4.364
270.72	4.365
271.08	4.333
271.45	4.433
271.81	4.352
272.17	4.883
272.53	5.124
272.90	4.897
273.26	5.064
273.62	5.101
273.98	5.053
274.35	5.031
274.71	5.120
275.07	5.185
275.43	4.941
275.80	5.112
276.16	4.814
276.52	4.707
276.88	4.668
277.25	4.511
277.61	4.538
277.97	4.457
278.33	4.436
278.69	4.056
279.06	3.969
279.42	3.982
279.78	3.731
280.14	3.793
280.50	3.823
280.87	4.170
281.23	4.234
281.59	4.169
281.95	4.055
282.31	4.113
282.68	4.238
283.04	4.172
283.40	4.168
283.76	4.333
284.12	4.323
284.48	4.228
284.85	3.892
285.21	3.735
285.57	3.764
285.93	3.687
286.29	3.589
286.65	3.759
287.02	3.877
287.38	3.958
287.74	3.985
288.10	3.982
288.46	4.107
288.82	4.358
289.18	4.576
289.54	4.421
289.91	4.600
290.27	4.640
290.63	4.497
290.99	4.525
291.35	4.694
291.71	4.619
292.07	4.386
292.43	4.335
292.79	4.160
293.16	4.148
293.52	4.227
293.88	4.332
294.24	4.441
294.60	4.427
294.96	4.464
295.32	4.323
295.68	4.352
296.04	4.625
296.40	4.606
296.76	4.675
297.12	4.598
297.49	4.646
297.85	4.538
298.21	4.423
298.57	4.340
298.93	4.183
299.29	4.152
299.65	4.130
300.01	4.162
300.37	4.282
300.73	4.386
301.09	4.380
301.45	4.338
301.81	4.302
302.17	4.435
302.53	4.344
302.89	4.443
303.25	4.463
303.61	4.325
303.97	4.219
304.33	4.191
304.69	4.014
305.05	4.116
305.41	4.153
305.77	4.247
306.13	4.109
306.49	4.305
306.85	4.324
307.21	4.436
307.57	4.580
307.93	4.648
308.29	4.645
308.65	4.636
309.01	4.699
309.37	4.724
309.73	4.597
310.09	4.609
310.45	4.548
310.81	4.552
311.17	4.511
311.53	4.513
311.89	4.397
312.25	4.325
312.61	4.554
312.96	4.470
313.32	4.527
313.68	4.663
314.04	4.697
314.40	4.755
314.76	4.816
315.12	4.788
315.48	4.804
315.84	4.860
316.20	4.961
316.56	4.801
316.92	4.899
317.27	4.821
317.63	4.914
317.99	5.159
318.35	5.199
318.71	5.099
319.07	5.005
319.43	5.024
319.79	5.027
320.15	5.077
320.50	5.137
320.86	5.009
321.22	5.175
321.58	5.084
321.94	4.878
322.30	4.808
322.66	4.827
323.01	5.028
323.37	4.993
323.73	5.117
324.09	4.986
324.45	4.882
324.81	4.924
325.17	4.730
325.52	4.779
325.88	4.780
326.24	4.910
326.60	4.893
326.96	4.811
327.31	4.764
327.67	4.676
328.03	4.749
328.39	4.854
328.75	4.896
329.11	4.887
329.46	4.870
329.82	4.889
330.18	4.779
330.54	4.773
330.90	4.741
331.25	4.856
331.61	4.879
331.97	4.935
332.33	4.853
332.68	4.826
333.04	4.985
333.40	5.036
333.76	5.179
334.11	5.119
334.47	5.132
334.83	5.186
335.19	5.127
335.54	5.165
335.90	5.079
336.26	5.048
336.62	4.997
336.97	4.953
337.33	4.955
337.69	4.850
338.05	4.932
338.40	4.927
338.76	4.866
339.12	4.908
339.48	4.743
339.83	4.926
340.19	5.068
340.55	5.165
340.90	5.145
341.26	5.131
341.62	5.148
341.97	5.212
342.33	5.229
342.69	5.296
343.04	5.288
343.40	5.491
343.76	5.408
344.12	5.348
344.47	5.275
344.83	5.397
345.19	5.407
345.54	5.504
345.90	5.472
346.26	5.542
346.61	5.563
346.97	5.581
347.32	5.450
347.68	5.481
348.04	5.620
348.39	5.750
348.75	5.735
349.11	5.791
349.46	5.705
349.82	5.652
350.18	5.607
350.53	5.617
350.89	5.613
351.24	5.711
351.60	5.715
351.96	5.526
352.31	5.478
352.67	5.426
353.02	5.476
353.38	5.521
353.74	5.607
354.09	5.651
354.45	5.647
354.80	5.690
355.16	5.719
355.52	5.770
355.87	5.864
356.23	5.927
356.58	5.958
356.94	5.855
357.29	5.854
357.65	5.869
358.00	5.868
358.36	5.897
358.72	5.888
359.07	5.845
359.43	5.773
359.78	5.773
360.14	5.758
360.49	5.755
360.85	5.817
361.20	5.883
361.56	5.896
361.91	5.966
362.27	5.933
362.62	5.947
362.98	5.980
363.33	6.010
363.69	6.055
364.04	6.073
364.40	6.127
364.75	6.074
365.11	6.013
365.46	6.031
365.82	6.033
366.17	6.070
366.53	6.078
366.88	6.082
367.24	6.105
367.59	6.078
367.95	6.103
368.30	6.114
368.66	6.184
369.01	6.207
369.37	6.206
369.72	6.179
370.08	6.200
370.43	6.252
370.78	6.270
371.14	6.325
371.49	6.317
371.85	6.348
372.20	6.345
372.56	6.352
372.91	6.306
373.26	6.345
373.62	6.376
373.97	6.375
374.33	6.353
374.68	6.354
375.03	6.293
375.39	6.346
375.74	6.329
376.10	6.334
376.45	6.350
376.80	6.430
377.16	6.414
377.51	6.389
377.87	6.422
378.22	6.425
378.57	6.436
378.93	6.438
379.28	6.493
379.63	6.508
379.99	6.512
380.34	6.533
380.70	6.543
381.05	6.563
381.40	6.627
381.76	6.649
382.11	6.659
382.46	6.685
382.82	6.737
383.17	6.690
383.52	6.694
383.88	6.738
384.23	6.755
384.58	6.791
384.94	6.831
385.29	6.791
385.64	6.765
385.99	6.801
386.35	6.790
386.70	6.812
387.05	6.827
387.41	6.789
387.76	6.776
388.11	6.789
388.47	6.764
388.82	6.741
389.17	6.765
389.52	6.781
389.88	6.749
390.23	6.779
390.58	6.774
390.93	6.803
391.29	6.860
391.64	6.846
391.99	6.842
392.34	6.852
392.70	6.844
393.05	6.873
393.40	6.891
393.75	6.935
394.11	6.931
394.46	6.932
394.81	6.904
395.16	6.887
395.52	6.897
395.87	6.910
396.22	6.910
396.57	6.993
396.92	6.986
397.28	6.999
397.63	6.991
397.98	6.998
398.33	7.012
398.68	7.047
399.04	7.062
399.39	7.090
399.74	7.060
400.09	7.057
400.44	7.007
400.80	7.014
401.15	6.996
401.50	7.026
401.85	7.056
402.20	7.065
402.55	7.053
402.90	7.068
403.26	7.056
403.61	7.078
403.96	7.079
404.31	7.100
404.66	7.107
405.01	7.104
405.36	7.094
405.72	7.087
406.07	7.092
406.42	7.129
406.77	7.155
407.12	7.160
407.47	7.176
407.82	7.206
408.17	7.197
408.53	7.199
408.88	7.220
409.23	7.203
409.58	7.194
409.93	7.194
410.28	7.187
410.63	7.156
410.98	7.151
411.33	7.180
411.68	7.176
412.03	7.185
412.38	7.194
412.73	7.204
413.09	7.219
413.44	7.208
413.79	7.195
414.14	7.162
414.49	7.168
414.84	7.186
415.19	7.153
415.54	7.136
415.89	7.132
416.24	7.112
416.59	7.094
416.94	7.093
417.29	7.094
417.64	7.087
417.99	7.100
418.34	7.091
418.69	7.086
419.04	7.099
419.39	7.102
419.74	7.106
420.09	7.129
420.44	7.152
420.79	7.163
421.14	7.181
421.49	7.202
421.84	7.225
422.19	7.241
422.54	7.260
422.89	7.263
423.24	7.284
423.59	7.303
423.94	7.313
424.29	7.333
424.64	7.368
424.99	7.386
425.34	7.405
425.68	7.434
426.03	7.476
426.38	7.497
426.73	7.526
427.08	7.547
427.43	7.558
427.78	7.582
428.13	7.592
428.48	7.574
428.83	7.590
429.18	7.588
429.53	7.555
429.87	7.522
430.22	7.526
430.57	7.544
430.92	7.563
431.27	7.575
431.62	7.552
431.97	7.535
432.32	7.553
432.67	7.561
433.01	7.578
433.36	7.597
433.71	7.641
434.06	7.635
434.41	7.636
434.76	7.634
435.11	7.668
435.45	7.669
435.80	7.681
436.15	7.662
436.50	7.654
436.85	7.652
437.20	7.664
437.54	7.641
437.89	7.659
438.24	7.657
438.59	7.657
438.94	7.630
439.29	7.646
439.63	7.651
439.98	7.658
440.33	7.667
440.68	7.681
441.03	7.683
441.37	7.709
441.72	7.733
442.07	7.754
442.42	7.760
442.76	7.762
443.11	7.788
443.46	7.799
443.81	7.829
444.16	7.835
444.50	7.836
444.85	7.854
445.20	7.861
445.55	7.866
445.89	7.862
446.24	7.879
446.59	7.932
446.94	7.935
447.28	7.959
447.63	7.997
447.98	8.043
448.32	8.100
448.67	8.121
449.02	8.148
449.37	8.165
449.71	8.194
450.06	8.223
450.41	8.220
450.75	8.254
451.10	8.273
451.45	8.247
451.79	8.252
452.14	8.234
452.49	8.251
452.84	8.262
453.18	8.280
453.53	8.289
453.88	8.297
454.22	8.306
454.57	8.307
454.92	8.308
455.26	8.326
455.61	8.333
455.95	8.350
456.30	8.337
456.65	8.349
456.99	8.359
457.34	8.385
457.69	8.412
458.03	8.415
458.38	8.427
458.73	8.429
459.07	8.442
459.42	8.458
459.76	8.467
460.11	8.505
460.46	8.531
460.80	8.548
461.15	8.563
461.49	8.566
461.84	8.591
462.19	8.621
462.53	8.652
462.88	8.665
463.22	8.671
463.57	8.697
463.91	8.707
464.26	8.726
464.61	8.755
464.95	8.756
465.30	8.764
465.64	8.780
465.99	8.788
466.33	8.809
466.68	8.833
467.02	8.856
467.37	8.861
467.71	8.889
468.06	8.903
468.41	8.900
468.75	8.921
469.10	8.941
469.44	8.950
469.79	8.965
470.13	9.003
470.48	9.013
470.82	9.028
471.17	9.062
471.51	9.056
471.86	9.045
472.20	9.048
472.55	9.050
472.89	9.062
473.23	9.080
473.58	9.088
473.92	9.063
474.27	9.076
474.61	9.061
474.96	9.057
475.30	9.087
475.65	9.110
475.99	9.128
476.34	9.147
476.68	9.152
477.02	9.147
477.37	9.151
477.71	9.173
478.06	9.184
478.40	9.207
478.75	9.242
479.09	9.285
479.43	9.437
479.78	9.657
480.12	9.885
480.47	10.111
480.81	10.349
481.15	10.586
481.50	10.822
481.84	11.084
482.19	11.376
482.53	11.663
482.87	11.894
483.22	11.965
483.56	11.898
483.90	11.755
484.25	11.565
484.59	11.330
484.94	11.065
485.28	10.780
485.62	10.459
485.97	10.126
486.31	9.801
486.65	9.537
487.00	9.365
487.34	9.263
487.68	9.238
488.03	9.251
488.37	9.284
488.71	9.318
489.06	9.368
489.40	9.411
489.74	9.441
490.09	9.489
490.43	9.522
490.77	9.561
491.11	9.616
491.46	9.633
491.80	9.640
492.14	9.643
492.49	9.659
492.83	9.677
493.17	9.691
493.51	9.719
493.86	9.720
494.20	9.733
494.54	9.741
494.88	9.750
495.23	9.755
495.57	9.773
495.91	9.793
496.25	9.803
496.60	9.808
496.94	9.840
497.28	9.856
497.62	9.892
497.97	9.920
498.31	9.947
498.65	9.962
498.99	10.002
499.33	10.028
499.68	10.050
500.02	10.093
500.36	10.126
500.70	10.149
501.04	10.173
501.39	10.198
501.73	10.219
502.07	10.246
502.41	10.265
502.75	10.266
503.09	10.276
503.44	10.275
503.78	10.278
504.12	10.281
504.46	10.291
504.80	10.298
505.14	10.300
505.49	10.324
505.83	10.344
506.17	10.357
506.51	10.381
506.85	10.393
507.19	10.429
507.53	10.455
507.87	10.472
508.22	10.489
508.56	10.529
508.90	10.573
509.24	10.602
509.58	10.622
509.92	10.647
510.26	10.685
510.60	10.716
510.94	10.739
511.28	10.770
511.63	10.819
511.97	10.859
512.31	10.886
512.65	10.902
512.99	10.938
513.33	10.970
513.67	11.000
514.01	11.027
514.35	11.049
514.69	11.066
515.03	11.068
515.37	11.081
515.71	11.097
516.05	11.100
516.39	11.123
516.73	11.130
517.07	11.154
517.41	11.181
517.75	11.198
518.09	11.226
518.43	11.272
518.77	11.316
519.11	11.360
519.45	11.380
519.79	11.436
520.13	11.462
520.47	11.495
520.81	11.536
521.15	11.565
521.49	11.603
521.83	11.626
522.17	11.648
522.51	11.673
522.85	11.671
523.19	11.695
523.53	11.738
523.87	11.795
524.21	11.882
524.55	11.994
524.89	12.141
525.23	12.283
525.57	12.423
525.91	12.560
526.25	12.699
526.58	12.847
526.92	12.992
527.26	13.072
527.60	13.091
527.94	13.003
528.28	12.850
528.62	12.630
528.96	12.402
529.30	12.291
529.64	12.177
529.97	12.056
530.31	11.925
530.65	11.796
530.99	11.704
531.33	11.684
531.67	11.755
532.01	11.888
532.35	12.059
532.68	12.230
533.02	12.260
533.36	12.271
533.70	12.278
534.04	12.282
534.38	12.286
534.71	12.289
535.05	12.306
535.39	12.327
535.73	12.329
536.07	12.345
536.41	12.352
536.74	12.377
537.08	12.414
537.42	12.444
537.76	12.478
538.10	12.494
538.43	12.536
538.77	12.558
539.11	12.580
539.45	12.601
539.79	12.616
540.12	12.639
540.46	12.642
540.80	12.640
541.14	12.639
541.47	12.626
541.81	12.633
542.15	12.624
542.49	12.622
542.82	12.621
543.16	12.625
543.50	12.627
543.84	12.623
544.17	12.646
544.51	12.650
544.85	12.670
545.18	12.690
545.52	12.706
545.86	12.729
546.20	12.756
546.53	12.773
546.87	12.796
547.21	12.832
547.54	12.872
547.88	12.878
548.22	12.909
548.55	12.930
548.89	12.981
549.23	13.019
549.56	13.023
549.90	13.040
550.24	13.062
550.57	13.066
550.91	13.081
551.25	13.076
551.58	13.084
551.92	13.119
552.26	13.140
552.59	13.130
552.93	13.141
553.27	13.163
553.60	13.168
553.94	13.199
554.27	13.219
554.61	13.243
554.95	13.303
555.28	13.334
555.62	13.330
555.95	13.332
556.29	13.343
556.63	13.353
556.96	13.378
557.30	13.401
557.63	13.387
557.97	13.399
558.31	13.377
558.64	13.372
558.98	13.375
559.31	13.361
559.65	13.387
559.98	13.400
560.32	13.420
560.65	13.431
560.99	13.425
561.33	13.432
561.66	13.410
562.00	13.419
562.33	13.411
562.67	13.416
563.00	13.450
563.34	13.425
563.67	13.430
564.01	13.408
564.34	13.410
564.68	13.411
565.01	13.407
565.35	13.418
565.68	13.437
566.02	13.440
566.35	13.432
566.69	13.419
567.02	13.448
567.36	13.445
567.69	13.441
568.03	13.451
568.36	13.469
568.69	13.450
569.03	13.441
569.36	13.433
569.70	13.421
570.03	13.432
570.37	13.428
570.70	13.413
571.04	13.425
571.37	13.442
571.70	13.444
572.04	13.422
572.37	13.452
572.71	13.482
573.04	13.504
573.37	13.520
573.71	13.521
574.04	13.549
574.38	13.577
574.71	13.601
575.04	13.605
575.38	13.604
575.71	13.651
576.05	13.675
576.38	13.702
576.71	13.719
577.05	13.757
577.38	13.788
577.71	13.809
578.05	13.830
578.38	13.825
578.71	13.853
579.05	13.884
579.38	13.903
579.71	13.931
580.05	13.938
580.38	13.957
580.71	13.957
581.05	13.995
581.38	13.997
581.71	14.039
582.05	14.092
582.38	14.129
582.71	14.144
583.04	14.155
583.38	14.148
583.71	14.146
584.04	14.138
584.38	14.173
584.71	14.176
585.04	14.161
585.37	14.147
585.71	14.137
586.04	14.119
586.37	14.130
586.70	14.134
587.04	14.170
587.37	14.201
587.70	14.235
588.03	14.247
588.37	14.245
588.70	14.300
589.03	14.320
589.36	14.343
589.69	14.356
590.03	14.380
590.36	14.420
590.69	14.438
591.02	14.436
591.35	14.429
591.69	14.419
592.02	14.428
592.35	14.414
592.68	14.403
593.01	14.369
593.35	14.379
593.68	14.369
594.01	14.345
594.34	14.317
594.67	14.322
595.00	14.337
595.34	14.338
595.67	14.340
596.00	14.359
596.33	14.359
596.66	14.411
596.99	14.424
597.32	14.445
597.65	14.474
597.99	14.522
598.32	14.541
598.65	14.549
598.98	14.584
599.31	14.601
599.64	14.596
599.97	14.621
600.30	14.578
600.63	14.586
600.96	14.571
601.30	14.533
601.63	14.504
601.96	14.492
602.29	14.474
602.62	14.460
602.95	14.445
603.28	14.451
603.61	14.428
603.94	14.454
604.27	14.454
604.60	14.453
604.93	14.478
605.26	14.486
605.59	14.477
605.92	14.503
606.25	14.525
606.58	14.555
606.91	14.554
607.24	14.558
607.57	14.564
607.90	14.557
608.23	14.573
608.56	14.568
608.89	14.582
609.22	14.592
609.55	14.584
609.88	14.573
610.21	14.581
610.54	14.597
610.87	14.660
611.20	14.680
611.53	14.719
611.86	14.734
612.19	14.796
612.52	14.830
612.85	14.876
613.18	14.872
613.51	14.904
613.84	14.905
614.17	14.910
614.49	14.910
614.82	14.890
615.15	14.885
615.48	14.880
615.81	14.846
616.14	14.842
616.47	14.825
616.80	14.860
617.13	14.847
617.46	14.873
617.78	14.910
618.11	14.913
618.44	14.971
618.77	15.015
619.10	15.035
619.43	15.050
619.76	15.077
620.09	15.127
620.41	15.133
620.74	15.151
621.07	15.173
621.40	15.181
621.73	15.172
622.06	15.139
622.38	15.122
622.71	15.145
623.04	15.177
623.37	15.194
623.70	15.167
624.02	15.174
624.35	15.159
624.68	15.144
625.01	15.128
625.34	15.161
625.66	15.161
625.99	15.183
626.32	15.196
626.65	15.210
626.98	15.215
627.30	15.254
627.63	15.263
627.96	15.303
628.29	15.362
628.61	15.400
628.94	15.401
629.27	15.445
629.60	15.475
629.92	15.492
630.25	15.511
630.58	15.533
630.91	15.547
631.23	15.589
631.56	15.611
631.89	15.606
632.21	15.641
632.54	15.669
632.87	15.686
633.19	15.702
633.52	15.690
633.85	15.705
634.18	15.720
634.50	15.753
634.83	15.729
635.16	15.761
635.48	15.750
635.81	15.724
636.14	15.742
636.46	15.759
636.79	15.745
637.11	15.799
637.44	15.818
637.77	15.822
638.09	15.814
638.42	15.865
638.75	15.869
639.07	15.911
639.40	15.927
639.73	15.948
640.05	15.967
640.38	15.951
640.70	15.920
641.03	15.934
641.36	15.966
641.68	15.999
642.01	16.028
642.33	16.023
642.66	16.015
642.98	16.050
643.31	16.047
643.64	16.052
643.96	16.099
644.29	16.114
644.61	16.102
644.94	16.093
645.26	16.067
645.59	16.050
645.91	16.051
646.24	16.056
646.56	15.990
646.89	15.974
647.22	15.938
647.54	15.908
647.87	15.933
648.19	15.930
648.52	15.891
648.84	15.899
649.17	15.868
649.49	15.874
