OOIBase32 Version 2.0.0.6 Data File
++++++++++++++++++++++++++++++++++++
Date: 01-22-2012, 22:04:23
User: Valued Ocean Optics Customer
Spectrometer Serial Number: USB2E2917
Spectrometer Channel: Master
Integration Time (msec): 4
Spectra Averaged: 10
Boxcar Smoothing: 5
Correct for Electrical Dark: Enabled
Time Normalized: Disabled
Dual-beam Reference: Disabled
Reference Channel: Master
Temperature: Not acquired
Spectrometer Type: S2000
ADC Type: USB2000
Number of Pixels in File: 2048
Graph Title: 
>>>>>Begin Spectral Data<<<<<
180.30	0.000
180.67	0.000
181.03	-24.057
181.40	22.149
181.77	-52.306
182.14	3.672
182.51	62.651
182.88	126.579
183.25	79.261
183.62	4.702
183.99	153.501
184.36	85.726
184.73	4.578
185.10	-1332.388
185.46	-204.695
185.83	2207.039
186.20	-381.751
186.57	-7860.873
186.94	2.638
187.31	14.412
187.68	140.872
188.05	-268.937
188.42	-55.872
188.78	723.490
189.15	209.141
189.52	93.148
189.89	54.331
190.26	103.265
190.63	73.530
191.00	35.892
191.37	45.489
191.73	5.353
192.10	-21.419
192.47	-13.464
192.84	-13.751
193.21	-0.754
193.58	19.566
193.94	31.882
194.31	23.467
194.68	24.303
195.05	24.995
195.42	24.778
195.79	30.892
196.15	27.985
196.52	30.392
196.89	28.487
197.26	-17.180
197.63	-11.860
198.00	-35.714
198.36	-53.243
198.73	-88.305
199.10	-225.986
199.47	-68.046
199.84	-43.285
200.20	-10.392
200.57	-63.835
200.94	-55.315
201.31	-47.295
201.68	-105.531
202.04	-51.888
202.41	-60.983
202.78	-29.074
203.15	-26.159
203.51	-31.977
203.88	-29.554
204.25	-33.520
204.62	-24.652
204.98	-21.839
205.35	-19.170
205.72	4.393
206.09	-7.257
206.46	-8.251
206.82	-35.038
207.19	-53.455
207.56	-36.986
207.92	-28.749
208.29	-22.882
208.66	-3.782
209.03	-15.589
209.39	-10.684
209.76	-6.837
210.13	-31.850
210.50	-30.951
210.86	-26.722
211.23	0.677
211.60	-5.485
211.96	-30.405
212.33	-55.876
212.70	-85.131
213.07	-55.965
213.43	-55.060
213.80	-67.669
214.17	-27.911
214.53	-12.001
214.90	-11.048
215.27	-10.045
215.63	-28.126
216.00	-19.046
216.37	-29.348
216.74	-10.497
217.10	-9.975
217.47	-3.821
217.84	-5.973
218.20	-8.320
218.57	-24.182
218.94	-35.331
219.30	-38.143
219.67	-30.154
220.04	-15.943
220.40	0.206
220.77	-20.914
221.13	-6.397
221.50	-10.943
221.87	-7.618
222.23	-5.771
222.60	1.279
222.97	6.418
223.33	8.612
223.70	15.014
224.07	12.215
224.43	11.200
224.80	9.410
225.16	4.547
225.53	4.890
225.90	3.799
226.26	2.897
226.63	3.035
226.99	2.849
227.36	2.222
227.73	1.252
228.09	3.138
228.46	3.163
228.82	4.806
229.19	3.502
229.56	3.512
229.92	4.848
230.29	6.699
230.65	9.002
231.02	11.244
231.38	10.075
231.75	9.280
232.12	5.470
232.48	4.915
232.85	5.995
233.21	7.203
233.58	8.381
233.94	7.308
234.31	5.530
234.68	2.482
235.04	2.332
235.41	4.160
235.77	4.207
236.14	3.885
236.50	1.330
236.87	-0.747
237.23	-0.818
237.60	-1.095
237.96	-0.381
238.33	-0.544
238.69	-0.184
239.06	-0.205
239.42	-1.137
239.79	-0.389
240.15	1.560
240.52	3.227
240.88	3.924
241.25	4.245
241.61	3.612
241.98	2.794
242.34	2.838
242.71	2.357
243.07	2.291
243.44	2.755
243.80	2.779
244.17	2.626
244.53	2.667
244.90	2.620
245.26	2.465
245.63	2.883
245.99	3.122
246.36	3.396
246.72	3.757
247.09	3.792
247.45	3.895
247.81	3.625
248.18	3.911
248.54	3.438
248.91	4.091
249.27	4.029
249.64	3.647
250.00	3.808
250.36	3.568
250.73	4.065
251.09	3.802
251.46	3.603
251.82	4.488
252.19	3.004
252.55	4.073
252.91	2.933
253.28	3.018
253.64	3.520
254.01	3.533
254.37	4.395
254.73	3.927
255.10	3.662
255.46	3.749
255.83	3.227
256.19	3.646
256.55	3.005
256.92	3.048
257.28	3.536
257.65	3.155
258.01	3.092
258.37	2.622
258.74	2.526
259.10	2.632
259.46	2.761
259.83	2.720
260.19	2.577
260.55	2.795
260.92	2.944
261.28	2.341
261.64	2.848
262.01	2.885
262.37	3.255
262.73	3.327
263.10	3.309
263.46	3.152
263.82	3.548
264.19	3.837
264.55	3.628
264.91	3.173
265.28	3.520
265.64	3.294
266.00	3.210
266.37	2.523
266.73	2.546
267.09	2.311
267.46	1.951
267.82	1.996
268.18	1.931
268.54	2.285
268.91	2.411
269.27	2.553
269.63	2.660
270.00	2.738
270.36	3.042
270.72	2.913
271.08	3.370
271.45	3.706
271.81	3.318
272.17	3.355
272.53	3.206
272.90	3.336
273.26	3.236
273.62	2.964
273.98	3.086
274.35	2.852
274.71	2.882
275.07	2.845
275.43	2.846
275.80	3.149
276.16	3.273
276.52	3.083
276.88	2.864
277.25	2.683
277.61	2.778
277.97	2.650
278.33	2.935
278.69	3.230
279.06	2.870
279.42	2.891
279.78	3.020
280.14	3.153
280.50	3.371
280.87	3.511
281.23	3.515
281.59	3.395
281.95	3.429
282.31	3.636
282.68	3.313
283.04	3.391
283.40	3.133
283.76	2.934
284.12	2.907
284.48	2.830
284.85	3.108
285.21	3.202
285.57	3.384
285.93	3.363
286.29	2.900
286.65	3.191
287.02	3.290
287.38	3.489
287.74	3.530
288.10	3.362
288.46	3.402
288.82	2.898
289.18	2.855
289.54	2.841
289.91	2.717
290.27	3.057
290.63	2.961
290.99	3.017
291.35	3.032
291.71	3.163
292.07	3.170
292.43	2.989
292.79	3.041
293.16	3.026
293.52	3.072
293.88	3.197
294.24	3.196
294.60	3.180
294.96	2.917
295.32	2.862
295.68	2.800
296.04	2.643
296.40	2.797
296.76	3.051
297.12	3.106
297.49	3.038
297.85	3.056
298.21	3.065
298.57	3.153
298.93	3.441
299.29	3.414
299.65	3.454
300.01	3.736
300.37	3.555
300.73	3.389
301.09	3.535
301.45	3.646
301.81	3.541
302.17	3.503
302.53	3.428
302.89	3.404
303.25	3.519
303.61	3.454
303.97	3.394
304.33	3.644
304.69	3.596
305.05	3.416
305.41	3.173
305.77	3.191
306.13	3.117
306.49	2.926
306.85	2.815
307.21	2.862
307.57	2.859
307.93	2.875
308.29	2.755
308.65	2.614
309.01	2.572
309.37	2.756
309.73	2.829
310.09	2.945
310.45	3.009
310.81	2.990
311.17	2.879
311.53	2.859
311.89	2.853
312.25	2.746
312.61	3.041
312.96	3.179
313.32	3.026
313.68	2.881
314.04	2.787
314.40	2.695
314.76	2.595
315.12	2.551
315.48	2.452
315.84	2.449
316.20	2.659
316.56	2.484
316.92	2.302
317.27	2.247
317.63	2.218
317.99	2.271
318.35	2.370
318.71	2.496
319.07	2.492
319.43	2.521
319.79	2.464
320.15	2.308
320.50	2.491
320.86	2.481
321.22	2.456
321.58	2.481
321.94	2.448
322.30	2.455
322.66	2.412
323.01	2.413
323.37	2.561
323.73	2.580
324.09	2.566
324.45	2.441
324.81	2.424
325.17	2.401
325.52	2.375
325.88	2.230
326.24	2.168
326.60	2.196
326.96	2.020
327.31	1.894
327.67	1.739
328.03	1.578
328.39	1.482
328.75	1.467
329.11	1.644
329.46	1.575
329.82	1.631
330.18	1.553
330.54	1.510
330.90	1.745
331.25	1.727
331.61	1.756
331.97	1.996
332.33	2.123
332.68	2.130
333.04	2.110
333.40	2.239
333.76	2.321
334.11	2.518
334.47	2.572
334.83	2.503
335.19	2.540
335.54	2.653
335.90	2.745
336.26	2.741
336.62	2.673
336.97	2.532
337.33	2.562
337.69	2.492
338.05	2.515
338.40	2.560
338.76	2.591
339.12	2.612
339.48	2.648
339.83	2.510
340.19	2.463
340.55	2.618
340.90	2.786
341.26	2.791
341.62	2.926
341.97	2.761
342.33	2.621
342.69	2.685
343.04	2.696
343.40	2.595
343.76	2.575
344.12	2.616
344.47	2.571
344.83	2.500
345.19	2.545
345.54	2.466
345.90	2.476
346.26	2.558
346.61	2.515
346.97	2.361
347.32	2.315
347.68	2.293
348.04	2.228
348.39	2.246
348.75	2.180
349.11	2.091
349.46	2.094
349.82	2.151
350.18	2.233
350.53	2.203
350.89	2.321
351.24	2.342
351.60	2.326
351.96	2.287
352.31	2.332
352.67	2.486
353.02	2.576
353.38	2.550
353.74	2.587
354.09	2.567
354.45	2.561
354.80	2.628
355.16	2.656
355.52	2.662
355.87	2.709
356.23	2.754
356.58	2.763
356.94	2.728
357.29	2.773
357.65	2.736
358.00	2.651
358.36	2.768
358.72	2.687
359.07	2.785
359.43	2.804
359.78	2.811
360.14	2.754
360.49	2.734
360.85	2.683
361.20	2.628
361.56	2.611
361.91	2.643
362.27	2.614
362.62	2.610
362.98	2.625
363.33	2.650
363.69	2.650
364.04	2.637
364.40	2.530
364.75	2.511
365.11	2.491
365.46	2.520
365.82	2.499
366.17	2.482
366.53	2.471
366.88	2.406
367.24	2.420
367.59	2.358
367.95	2.468
368.30	2.498
368.66	2.598
369.01	2.627
369.37	2.638
369.72	2.685
370.08	2.616
370.43	2.684
370.78	2.705
371.14	2.734
371.49	2.803
371.85	2.745
372.20	2.832
372.56	2.820
372.91	2.848
373.26	2.811
373.62	2.835
373.97	2.868
374.33	2.804
374.68	2.794
375.03	2.808
375.39	2.786
375.74	2.717
376.10	2.663
376.45	2.696
376.80	2.722
377.16	2.766
377.51	2.756
377.87	2.800
378.22	2.942
378.57	3.013
378.93	2.997
379.28	3.108
379.63	3.226
379.99	3.341
380.34	3.388
380.70	3.453
381.05	3.532
381.40	3.585
381.76	3.622
382.11	3.621
382.46	3.577
382.82	3.633
383.17	3.577
383.52	3.550
383.88	3.519
384.23	3.477
384.58	3.441
384.94	3.427
385.29	3.440
385.64	3.455
385.99	3.430
386.35	3.447
386.70	3.404
387.05	3.457
387.41	3.434
387.76	3.418
388.11	3.464
388.47	3.452
388.82	3.421
389.17	3.454
389.52	3.466
389.88	3.474
390.23	3.500
390.58	3.536
390.93	3.580
391.29	3.643
391.64	3.652
391.99	3.600
392.34	3.645
392.70	3.605
393.05	3.540
393.40	3.480
393.75	3.408
394.11	3.404
394.46	3.349
394.81	3.223
395.16	3.122
395.52	3.042
395.87	3.005
396.22	2.899
396.57	2.811
396.92	2.723
397.28	2.656
397.63	2.619
397.98	2.498
398.33	2.411
398.68	2.374
399.04	2.365
399.39	2.353
399.74	2.317
400.09	2.287
400.44	2.334
400.80	2.344
401.15	2.386
401.50	2.411
401.85	2.421
402.20	2.456
402.55	2.508
402.90	2.520
403.26	2.485
403.61	2.486
403.96	2.518
404.31	2.556
404.66	2.549
405.01	2.534
405.36	2.517
405.72	2.517
406.07	2.480
406.42	2.418
406.77	2.350
407.12	2.374
407.47	2.340
407.82	2.298
408.17	2.256
408.53	2.226
408.88	2.194
409.23	2.170
409.58	2.122
409.93	2.121
410.28	2.101
410.63	2.107
410.98	2.083
411.33	2.091
411.68	2.079
412.03	2.036
412.38	2.067
412.73	2.082
413.09	2.109
413.44	2.191
413.79	2.228
414.14	2.321
414.49	2.371
414.84	2.428
415.19	2.492
415.54	2.546
415.89	2.630
416.24	2.691
416.59	2.769
416.94	2.825
417.29	2.842
417.64	2.891
417.99	2.902
418.34	2.922
418.69	2.940
419.04	2.945
419.39	2.970
419.74	2.974
420.09	2.962
420.44	2.952
420.79	2.920
421.14	2.923
421.49	2.905
421.84	2.878
422.19	2.857
422.54	2.842
422.89	2.826
423.24	2.796
423.59	2.757
423.94	2.727
424.29	2.669
424.64	2.633
424.99	2.566
425.34	2.527
425.68	2.494
426.03	2.429
426.38	2.384
426.73	2.341
427.08	2.300
427.43	2.311
427.78	2.301
428.13	2.313
428.48	2.350
428.83	2.369
429.18	2.376
429.53	2.369
429.87	2.407
430.22	2.402
430.57	2.411
430.92	2.411
431.27	2.369
431.62	2.371
431.97	2.356
432.32	2.324
432.67	2.287
433.01	2.254
433.36	2.253
433.71	2.231
434.06	2.223
434.41	2.198
434.76	2.191
435.11	2.213
435.45	2.218
435.80	2.232
436.15	2.250
436.50	2.308
436.85	2.341
437.20	2.351
437.54	2.354
437.89	2.345
438.24	2.346
438.59	2.339
438.94	2.330
439.29	2.302
439.63	2.284
439.98	2.252
440.33	2.203
440.68	2.188
441.03	2.180
441.37	2.180
441.72	2.190
442.07	2.206
442.42	2.237
442.76	2.261
443.11	2.272
443.46	2.266
443.81	2.283
444.16	2.288
444.50	2.277
444.85	2.261
445.20	2.244
445.55	2.210
445.89	2.167
446.24	2.105
446.59	2.017
446.94	1.952
447.28	1.876
447.63	1.798
447.98	1.742
448.32	1.658
448.67	1.587
449.02	1.512
449.37	1.469
449.71	1.429
450.06	1.420
450.41	1.444
450.75	1.452
451.10	1.448
451.45	1.455
451.79	1.429
452.14	1.423
452.49	1.404
452.84	1.406
453.18	1.394
453.53	1.397
453.88	1.383
454.22	1.396
454.57	1.421
454.92	1.497
455.26	1.560
455.61	1.620
455.95	1.687
456.30	1.751
456.65	1.802
456.99	1.872
457.34	1.936
457.69	1.980
458.03	1.989
458.38	1.995
458.73	1.980
459.07	1.946
459.42	1.930
459.76	1.884
460.11	1.832
460.46	1.797
460.80	1.723
461.15	1.640
461.49	1.583
461.84	1.536
462.19	1.511
462.53	1.499
462.88	1.480
463.22	1.503
463.57	1.538
463.91	1.584
464.26	1.615
464.61	1.662
464.95	1.724
465.30	1.751
465.64	1.787
465.99	1.805
466.33	1.827
466.68	1.865
467.02	1.844
467.37	1.845
467.71	1.848
468.06	1.830
468.41	1.807
468.75	1.771
469.10	1.743
469.44	1.716
469.79	1.681
470.13	1.651
470.48	1.602
470.82	1.572
471.17	1.556
471.51	1.541
471.86	1.525
472.20	1.500
472.55	1.478
472.89	1.473
473.23	1.451
473.58	1.436
473.92	1.423
474.27	1.438
474.61	1.420
474.96	1.376
475.30	1.336
475.65	1.314
475.99	1.301
476.34	1.307
476.68	1.299
477.02	1.315
477.37	1.332
477.71	1.351
478.06	1.418
478.40	1.544
478.75	1.736
479.09	1.926
479.43	2.122
479.78	2.280
480.12	2.424
480.47	2.564
480.81	2.693
481.15	2.801
481.50	2.901
481.84	2.979
482.19	3.059
482.53	3.113
482.87	3.139
483.22	3.141
483.56	3.151
483.90	3.138
484.25	3.119
484.59	3.074
484.94	3.045
485.28	2.994
485.62	2.939
485.97	2.870
486.31	2.800
486.65	2.751
487.00	2.711
487.34	2.674
487.68	2.649
488.03	2.617
488.37	2.604
488.71	2.584
489.06	2.582
489.40	2.574
489.74	2.567
490.09	2.556
490.43	2.529
490.77	2.499
491.11	2.469
491.46	2.428
491.80	2.390
492.14	2.350
492.49	2.309
492.83	2.256
493.17	2.205
493.51	2.170
493.86	2.137
494.20	2.169
494.54	2.211
494.88	2.252
495.23	2.324
495.57	2.408
495.91	2.483
496.25	2.560
496.60	2.647
496.94	2.735
497.28	2.829
497.62	2.909
497.97	2.955
498.31	3.038
498.65	3.157
498.99	3.286
499.33	3.403
499.68	3.558
500.02	3.731
500.36	3.888
500.70	4.084
501.04	4.264
501.39	4.469
501.73	4.682
502.07	4.917
502.41	5.128
502.75	5.354
503.09	5.622
503.44	5.880
503.78	6.132
504.12	6.424
504.46	6.733
504.80	7.054
505.14	7.377
505.49	7.707
505.83	8.015
506.17	8.367
506.51	8.686
506.85	9.030
507.19	9.372
507.53	9.714
507.87	10.086
508.22	10.403
508.56	10.741
508.90	11.121
509.24	11.479
509.58	11.850
509.92	12.220
510.26	12.628
510.60	12.996
510.94	13.395
511.28	13.803
511.63	14.202
511.97	14.647
512.31	15.097
512.65	15.576
512.99	16.083
513.33	16.623
513.67	17.164
514.01	17.708
514.35	18.255
514.69	18.777
515.03	19.310
515.37	19.790
515.71	20.230
516.05	20.671
516.39	21.041
516.73	21.422
517.07	21.776
517.41	22.096
517.75	22.398
518.09	22.732
518.43	23.034
518.77	23.335
519.11	23.662
519.45	24.044
519.79	24.400
520.13	24.832
520.47	25.276
520.81	25.732
521.15	26.206
521.49	26.703
521.83	27.151
522.17	27.622
522.51	28.095
522.85	28.657
523.19	29.225
523.53	29.849
523.87	30.481
524.21	31.083
524.55	31.651
524.89	32.171
525.23	32.626
525.57	33.042
525.91	33.431
526.25	33.790
526.58	34.077
526.92	34.319
527.26	34.516
527.60	34.672
527.94	34.820
528.28	34.928
528.62	35.059
528.96	35.181
529.30	35.319
529.64	35.454
529.97	35.564
530.31	35.699
530.65	35.859
530.99	36.031
531.33	36.225
531.67	36.405
532.01	36.602
532.35	36.717
532.68	36.831
533.02	36.938
533.36	37.012
533.70	37.119
534.04	37.199
534.38	37.296
534.71	37.403
535.05	37.483
535.39	37.574
535.73	37.703
536.07	37.920
536.41	38.175
536.74	38.408
537.08	38.705
537.42	38.954
537.76	39.215
538.10	39.459
538.43	39.697
538.77	39.915
539.11	40.119
539.45	40.282
539.79	40.405
540.12	40.502
540.46	40.567
540.80	40.578
541.14	40.622
541.47	40.648
541.81	40.644
542.15	40.641
542.49	40.645
542.82	40.606
543.16	40.564
543.50	40.535
543.84	40.518
544.17	40.544
544.51	40.589
544.85	40.599
545.18	40.602
545.52	40.630
545.86	40.662
546.20	40.700
546.53	40.693
546.87	40.770
547.21	40.810
547.54	40.853
547.88	40.918
548.22	40.947
548.55	40.987
548.89	41.046
549.23	41.105
549.56	41.178
549.90	41.173
550.24	41.291
550.57	41.315
550.91	41.330
551.25	41.327
551.58	41.362
551.92	41.383
552.26	41.406
552.59	41.460
552.93	41.515
553.27	41.512
553.60	41.527
553.94	41.545
554.27	41.509
554.61	41.549
554.95	41.633
555.28	41.587
555.62	41.639
555.95	41.711
556.29	41.688
556.63	41.685
556.96	41.678
557.30	41.724
557.63	41.759
557.97	41.828
558.31	41.855
558.64	41.860
558.98	41.897
559.31	41.918
559.65	41.942
559.98	41.997
560.32	42.053
560.65	42.145
560.99	42.194
561.33	42.241
561.66	42.318
562.00	42.416
562.33	42.462
562.67	42.481
563.00	42.536
563.34	42.542
563.67	42.588
564.01	42.611
564.34	42.619
564.68	42.651
565.01	42.683
565.35	42.696
565.68	42.666
566.02	42.676
566.35	42.724
566.69	42.753
567.02	42.783
567.36	42.747
567.69	42.768
568.03	42.788
568.36	42.799
568.69	42.753
569.03	42.706
569.36	42.711
569.70	42.681
570.03	42.731
570.37	42.703
570.70	42.685
571.04	42.684
571.37	42.682
571.70	42.659
572.04	42.687
572.37	42.738
572.71	42.807
573.04	42.851
573.37	42.913
573.71	42.832
574.04	42.860
574.38	42.841
574.71	42.879
575.04	42.817
575.38	42.796
575.71	42.716
576.05	42.669
576.38	42.613
576.71	42.506
577.05	42.466
577.38	42.524
577.71	42.459
578.05	42.472
578.38	42.436
578.71	42.482
579.05	42.500
579.38	42.464
579.71	42.434
580.05	42.402
580.38	42.406
580.71	42.379
581.05	42.281
581.38	42.273
581.71	42.262
582.05	42.291
582.38	42.241
582.71	42.270
583.04	42.276
583.38	42.302
583.71	42.329
584.04	42.325
584.38	42.281
584.71	42.319
585.04	42.340
585.37	42.351
585.71	42.345
586.04	42.377
586.37	42.328
586.70	42.342
587.04	42.351
587.37	42.324
587.70	42.294
588.03	42.268
588.37	42.288
588.70	42.261
589.03	42.213
589.36	42.142
589.69	42.096
590.03	42.074
590.36	42.097
590.69	41.999
591.02	41.971
591.35	41.985
591.69	41.977
592.02	41.930
592.35	41.890
592.68	41.818
593.01	41.805
593.35	41.757
593.68	41.725
594.01	41.631
594.34	41.648
594.67	41.564
595.00	41.546
595.34	41.538
595.67	41.482
596.00	41.439
596.33	41.422
596.66	41.348
596.99	41.344
597.32	41.270
597.65	41.250
597.99	41.164
598.32	41.150
598.65	41.006
598.98	40.899
599.31	40.827
599.64	40.760
599.97	40.652
600.30	40.602
600.63	40.489
600.96	40.428
601.30	40.370
601.63	40.340
601.96	40.278
602.29	40.282
602.62	40.244
602.95	40.144
603.28	40.115
603.61	40.139
603.94	40.092
604.27	40.063
604.60	40.045
604.93	39.957
605.26	39.922
605.59	39.838
605.92	39.739
606.25	39.667
606.58	39.653
606.91	39.579
607.24	39.536
607.57	39.471
607.90	39.413
608.23	39.323
608.56	39.281
608.89	39.190
609.22	39.173
609.55	39.120
609.88	39.068
610.21	38.979
610.54	38.860
610.87	38.757
611.20	38.726
611.53	38.619
611.86	38.588
612.19	38.561
612.52	38.487
612.85	38.396
613.18	38.354
613.51	38.265
613.84	38.244
614.17	38.185
614.49	38.105
614.82	38.001
615.15	37.942
615.48	37.848
615.81	37.733
616.14	37.679
616.47	37.653
616.80	37.610
617.13	37.557
617.46	37.461
617.78	37.435
618.11	37.405
618.44	37.339
618.77	37.332
619.10	37.265
619.43	37.213
619.76	37.131
620.09	37.042
620.41	36.973
620.74	36.930
621.07	36.917
621.40	36.895
621.73	36.811
622.06	36.801
622.38	36.696
622.71	36.661
623.04	36.587
623.37	36.540
623.70	36.521
624.02	36.448
624.35	36.432
624.68	36.402
625.01	36.338
625.34	36.298
625.66	36.254
625.99	36.228
626.32	36.219
626.65	36.175
626.98	36.154
627.30	36.111
627.63	36.087
627.96	35.992
628.29	35.883
628.61	35.828
628.94	35.821
629.27	35.684
629.60	35.631
629.92	35.547
630.25	35.548
630.58	35.527
630.91	35.498
631.23	35.448
631.56	35.453
631.89	35.439
632.21	35.393
632.54	35.267
632.87	35.230
633.19	35.180
633.52	35.095
633.85	35.059
634.18	34.956
634.50	34.817
634.83	34.816
635.16	34.741
635.48	34.645
635.81	34.564
636.14	34.556
636.46	34.549
636.79	34.496
637.11	34.463
637.44	34.395
637.77	34.340
638.09	34.385
638.42	34.281
638.75	34.203
639.07	34.136
639.40	34.081
639.73	33.971
640.05	33.881
640.38	33.866
640.70	33.847
641.03	33.770
641.36	33.688
641.68	33.558
642.01	33.514
642.33	33.520
642.66	33.542
642.98	33.581
643.31	33.585
643.64	33.598
643.96	33.554
644.29	33.508
644.61	33.514
644.94	33.550
645.26	33.595
645.59	33.572
645.91	33.548
646.24	33.542
646.56	33.470
646.89	33.416
647.22	33.385
647.54	33.405
647.87	33.346
648.19	33.338
648.52	33.296
648.84	33.246
