OOIBase32 Version 2.0.0.6 Data File
++++++++++++++++++++++++++++++++++++
Date: 01-20-2012, 22:05:26
User: Valued Ocean Optics Customer
Spectrometer Serial Number: USB2E2917
Spectrometer Channel: Master
Integration Time (msec): 4
Spectra Averaged: 10
Boxcar Smoothing: 5
Correct for Electrical Dark: Enabled
Time Normalized: Disabled
Dual-beam Reference: Disabled
Reference Channel: Master
Temperature: Not acquired
Spectrometer Type: S2000
ADC Type: USB2000
Number of Pixels in File: 2048
Graph Title: 
>>>>>Begin Spectral Data<<<<<
180.30	0.000
180.67	0.000
181.03	0.905
181.40	133.721
181.77	226.786
182.14	5905.067
182.51	64.744
182.88	18.417
183.25	85.397
183.62	110.961
183.99	-210.322
184.36	207.399
184.73	40.201
185.10	-92.900
185.46	-27.307
185.83	9.338
186.20	-365.504
186.57	203.747
186.94	-181.391
187.31	70.771
187.68	124.361
188.05	123.344
188.42	82.849
188.78	62.145
189.15	38.034
189.52	34.648
189.89	14.209
190.26	13.718
190.63	30.063
191.00	27.429
191.37	19.884
191.73	19.057
192.10	11.000
192.47	18.314
192.84	24.307
193.21	35.213
193.58	37.355
193.94	47.499
194.31	52.794
194.68	45.569
195.05	25.805
195.42	25.805
195.79	28.780
196.15	30.194
196.52	27.278
196.89	19.916
197.26	5.105
197.63	-0.673
198.00	-7.471
198.36	-19.013
198.73	-15.395
199.10	2.240
199.47	-0.088
199.84	-6.337
200.20	-9.266
200.57	-20.880
200.94	-23.155
201.31	-15.848
201.68	-15.989
202.04	-9.305
202.41	2.165
202.78	3.839
203.15	-1.086
203.51	4.099
203.88	3.704
204.25	9.971
204.62	21.975
204.98	21.444
205.35	17.320
205.72	19.626
206.09	13.465
206.46	6.333
206.82	4.273
207.19	6.193
207.56	9.057
207.92	7.752
208.29	3.586
208.66	-0.704
209.03	-1.455
209.39	-2.879
209.76	-4.409
210.13	0.664
210.50	8.973
210.86	15.695
211.23	13.483
211.60	10.252
211.96	24.670
212.33	24.623
212.70	20.497
213.07	24.414
213.43	28.860
213.80	25.285
214.17	25.210
214.53	25.641
214.90	12.605
215.27	12.009
215.63	12.587
216.00	8.809
216.37	5.052
216.74	5.594
217.10	5.420
217.47	-0.582
217.84	2.142
218.20	0.165
218.57	2.008
218.94	15.464
219.30	12.758
219.67	18.668
220.04	14.485
220.40	17.396
220.77	18.659
221.13	19.567
221.50	19.113
221.87	18.815
222.23	16.979
222.60	14.471
222.97	9.440
223.33	10.927
223.70	6.724
224.07	8.353
224.43	6.266
224.80	6.330
225.16	4.845
225.53	5.911
225.90	5.168
226.26	5.515
226.63	5.359
226.99	5.604
227.36	5.085
227.73	5.788
228.09	4.556
228.46	5.267
228.82	4.553
229.19	4.573
229.56	3.668
229.92	3.928
230.29	3.693
230.65	4.877
231.02	4.794
231.38	5.174
231.75	4.736
232.12	5.071
232.48	4.342
232.85	4.907
233.21	5.551
233.58	5.082
233.94	4.587
234.31	3.974
234.68	3.152
235.04	2.926
235.41	2.440
235.77	2.057
236.14	2.289
236.50	3.280
236.87	3.942
237.23	3.664
237.60	4.771
237.96	4.591
238.33	4.787
238.69	4.281
239.06	4.096
239.42	4.248
239.79	4.386
240.15	4.277
240.52	4.132
240.88	4.096
241.25	4.252
241.61	4.106
241.98	4.283
242.34	4.292
242.71	4.302
243.07	4.388
243.44	4.270
243.80	4.278
244.17	4.552
244.53	4.507
244.90	4.546
245.26	4.468
245.63	4.292
245.99	4.337
246.36	4.280
246.72	4.289
247.09	4.381
247.45	4.448
247.81	4.373
248.18	4.209
248.54	4.182
248.91	4.022
249.27	4.075
249.64	4.320
250.00	4.231
250.36	4.314
250.73	4.137
251.09	3.942
251.46	3.998
251.82	3.758
252.19	3.644
252.55	3.553
252.91	3.620
253.28	3.640
253.64	3.486
254.01	3.619
254.37	3.562
254.73	4.061
255.10	4.076
255.46	3.797
255.83	4.162
256.19	4.169
256.55	4.037
256.92	3.964
257.28	4.012
257.65	3.964
258.01	3.843
258.37	3.921
258.74	3.790
259.10	3.772
259.46	3.898
259.83	3.882
260.19	3.852
260.55	3.879
260.92	3.917
261.28	3.784
261.64	3.928
262.01	3.991
262.37	3.817
262.73	3.905
263.10	3.843
263.46	3.839
263.82	3.767
264.19	3.852
264.55	3.738
264.91	3.551
265.28	3.518
265.64	3.443
266.00	3.547
266.37	3.756
266.73	3.570
267.09	3.777
267.46	3.722
267.82	3.803
268.18	3.633
268.54	3.533
268.91	3.541
269.27	3.532
269.63	3.467
270.00	3.301
270.36	3.298
270.72	3.409
271.08	3.363
271.45	3.405
271.81	3.177
272.17	3.383
272.53	3.402
272.90	3.496
273.26	3.576
273.62	3.597
273.98	3.639
274.35	3.538
274.71	3.522
275.07	3.585
275.43	3.588
275.80	3.881
276.16	3.819
276.52	4.049
276.88	4.152
277.25	4.029
277.61	3.953
277.97	4.047
278.33	3.902
278.69	3.862
279.06	3.580
279.42	3.514
279.78	3.250
280.14	3.110
280.50	3.123
280.87	3.146
281.23	3.107
281.59	3.116
281.95	3.001
282.31	3.093
282.68	3.123
283.04	3.215
283.40	3.254
283.76	3.339
284.12	3.411
284.48	3.379
284.85	3.253
285.21	3.238
285.57	3.336
285.93	3.407
286.29	3.422
286.65	3.448
287.02	3.424
287.38	3.391
287.74	3.429
288.10	3.379
288.46	3.357
288.82	3.445
289.18	3.508
289.54	3.521
289.91	3.375
290.27	3.318
290.63	3.388
290.99	3.483
291.35	3.534
291.71	3.471
292.07	3.452
292.43	3.433
292.79	3.452
293.16	3.457
293.52	3.487
293.88	3.780
294.24	3.830
294.60	3.617
294.96	3.622
295.32	3.641
295.68	3.683
296.04	3.720
296.40	3.779
296.76	3.798
297.12	3.865
297.49	3.778
297.85	3.688
298.21	3.667
298.57	3.728
298.93	3.614
299.29	3.637
299.65	3.818
300.01	3.835
300.37	3.811
300.73	3.806
301.09	3.709
301.45	3.682
301.81	3.750
302.17	3.780
302.53	3.829
302.89	3.868
303.25	3.819
303.61	3.668
303.97	3.676
304.33	3.680
304.69	3.632
305.05	3.679
305.41	3.688
305.77	3.648
306.13	3.711
306.49	3.704
306.85	3.699
307.21	3.684
307.57	3.755
307.93	3.762
308.29	3.796
308.65	3.818
309.01	3.825
309.37	3.892
309.73	3.856
310.09	3.817
310.45	3.895
310.81	3.904
311.17	3.990
311.53	3.958
311.89	4.005
312.25	4.026
312.61	4.011
312.96	3.982
313.32	3.937
313.68	3.974
314.04	4.016
314.40	3.983
314.76	3.966
315.12	4.016
315.48	4.003
315.84	3.943
316.20	3.950
316.56	3.947
316.92	4.013
317.27	4.119
317.63	4.079
317.99	4.054
318.35	4.105
318.71	4.161
319.07	4.048
319.43	4.059
319.79	4.169
320.15	4.162
320.50	4.253
320.86	4.351
321.22	4.366
321.58	4.354
321.94	4.365
322.30	4.303
322.66	4.465
323.01	4.422
323.37	4.453
323.73	4.475
324.09	4.491
324.45	4.557
324.81	4.535
325.17	4.512
325.52	4.588
325.88	4.641
326.24	4.707
326.60	4.656
326.96	4.705
327.31	4.786
327.67	4.689
328.03	4.730
328.39	4.694
328.75	4.748
329.11	4.858
329.46	4.875
329.82	4.911
330.18	4.950
330.54	4.907
330.90	5.037
331.25	5.121
331.61	5.205
331.97	5.173
332.33	5.248
332.68	5.236
333.04	5.152
333.40	5.046
333.76	5.113
334.11	5.206
334.47	5.213
334.83	5.243
335.19	5.182
335.54	5.198
335.90	5.376
336.26	5.432
336.62	5.456
336.97	5.583
337.33	5.742
337.69	5.711
338.05	5.695
338.40	5.763
338.76	5.736
339.12	5.715
339.48	5.754
339.83	5.622
340.19	5.531
340.55	5.526
340.90	5.548
341.26	5.518
341.62	5.516
341.97	5.570
342.33	5.637
342.69	5.651
343.04	5.658
343.40	5.697
343.76	5.730
344.12	5.791
344.47	5.821
344.83	5.766
345.19	5.784
345.54	5.815
345.90	5.760
346.26	5.756
346.61	5.777
346.97	5.829
347.32	5.843
347.68	5.886
348.04	5.911
348.39	5.942
348.75	6.003
349.11	6.113
349.46	6.132
349.82	6.141
350.18	6.119
350.53	6.192
350.89	6.224
351.24	6.223
351.60	6.256
351.96	6.247
352.31	6.237
352.67	6.210
353.02	6.153
353.38	6.107
353.74	6.108
354.09	6.128
354.45	6.048
354.80	5.999
355.16	5.956
355.52	5.907
355.87	5.919
356.23	5.952
356.58	5.910
356.94	5.864
357.29	5.893
357.65	5.861
358.00	5.859
358.36	5.874
358.72	5.911
359.07	5.956
359.43	5.985
359.78	5.942
360.14	5.892
360.49	5.929
360.85	6.003
361.20	6.033
361.56	6.066
361.91	6.095
362.27	6.106
362.62	6.102
362.98	6.121
363.33	6.099
363.69	6.130
364.04	6.149
364.40	6.173
364.75	6.193
365.11	6.198
365.46	6.263
365.82	6.252
366.17	6.277
366.53	6.284
366.88	6.249
367.24	6.267
367.59	6.327
367.95	6.371
368.30	6.355
368.66	6.348
369.01	6.327
369.37	6.251
369.72	6.244
370.08	6.246
370.43	6.297
370.78	6.324
371.14	6.367
371.49	6.316
371.85	6.310
372.20	6.332
372.56	6.322
372.91	6.360
373.26	6.436
373.62	6.468
373.97	6.497
374.33	6.528
374.68	6.546
375.03	6.559
375.39	6.610
375.74	6.618
376.10	6.598
376.45	6.627
376.80	6.632
377.16	6.641
377.51	6.645
377.87	6.649
378.22	6.606
378.57	6.638
378.93	6.678
379.28	6.721
379.63	6.746
379.99	6.818
380.34	6.840
380.70	6.884
381.05	6.910
381.40	6.941
381.76	6.957
382.11	7.023
382.46	7.013
382.82	7.026
383.17	7.004
383.52	7.045
383.88	7.079
384.23	7.109
384.58	7.158
384.94	7.209
385.29	7.230
385.64	7.253
385.99	7.249
386.35	7.287
386.70	7.296
387.05	7.321
387.41	7.335
387.76	7.321
388.11	7.330
388.47	7.263
388.82	7.259
389.17	7.299
389.52	7.329
389.88	7.368
390.23	7.402
390.58	7.403
390.93	7.416
391.29	7.398
391.64	7.443
391.99	7.459
392.34	7.516
392.70	7.541
393.05	7.554
393.40	7.571
393.75	7.591
394.11	7.605
394.46	7.627
394.81	7.636
395.16	7.681
395.52	7.689
395.87	7.702
396.22	7.709
396.57	7.714
396.92	7.706
397.28	7.723
397.63	7.708
397.98	7.697
398.33	7.723
398.68	7.745
399.04	7.748
399.39	7.749
399.74	7.769
400.09	7.790
400.44	7.775
400.80	7.808
401.15	7.821
401.50	7.801
401.85	7.816
402.20	7.805
402.55	7.809
402.90	7.875
403.26	7.864
403.61	7.833
403.96	7.840
404.31	7.883
404.66	7.877
405.01	7.867
405.36	7.893
405.72	7.889
406.07	7.900
406.42	7.916
406.77	7.857
407.12	7.870
407.47	7.917
407.82	7.935
408.17	7.894
408.53	7.884
408.88	7.895
409.23	7.902
409.58	7.911
409.93	7.918
410.28	7.915
410.63	7.943
410.98	7.957
411.33	7.958
411.68	7.949
412.03	7.949
412.38	7.950
412.73	7.941
413.09	7.939
413.44	7.938
413.79	7.901
414.14	7.886
414.49	7.875
414.84	7.881
415.19	7.865
415.54	7.853
415.89	7.824
416.24	7.804
416.59	7.788
416.94	7.772
417.29	7.770
417.64	7.768
417.99	7.768
418.34	7.741
418.69	7.703
419.04	7.683
419.39	7.674
419.74	7.685
420.09	7.681
420.44	7.683
420.79	7.674
421.14	7.665
421.49	7.668
421.84	7.660
422.19	7.661
422.54	7.682
422.89	7.686
423.24	7.686
423.59	7.686
423.94	7.690
424.29	7.686
424.64	7.708
424.99	7.716
425.34	7.712
425.68	7.722
426.03	7.729
426.38	7.730
426.73	7.750
427.08	7.780
427.43	7.796
427.78	7.783
428.13	7.785
428.48	7.776
428.83	7.768
429.18	7.774
429.53	7.781
429.87	7.811
430.22	7.806
430.57	7.819
430.92	7.795
431.27	7.800
431.62	7.840
431.97	7.853
432.32	7.859
432.67	7.858
433.01	7.871
433.36	7.868
433.71	7.865
434.06	7.882
434.41	7.873
434.76	7.867
435.11	7.879
435.45	7.858
435.80	7.852
436.15	7.849
436.50	7.851
436.85	7.851
437.20	7.856
437.54	7.835
437.89	7.815
438.24	7.805
438.59	7.810
438.94	7.799
439.29	7.808
439.63	7.800
439.98	7.789
440.33	7.785
440.68	7.787
441.03	7.774
441.37	7.783
441.72	7.799
442.07	7.814
442.42	7.820
442.76	7.829
443.11	7.829
443.46	7.841
443.81	7.862
444.16	7.863
444.50	7.870
444.85	7.881
445.20	7.890
445.55	7.892
445.89	7.887
446.24	7.892
446.59	7.885
446.94	7.886
447.28	7.892
447.63	7.893
447.98	7.912
448.32	7.910
448.67	7.913
449.02	7.911
449.37	7.925
449.71	7.929
450.06	7.948
450.41	7.961
450.75	7.991
451.10	8.012
451.45	8.023
451.79	8.012
452.14	8.026
452.49	8.031
452.84	8.038
453.18	8.032
453.53	8.052
453.88	8.040
454.22	8.055
454.57	8.050
454.92	8.033
455.26	8.029
455.61	8.051
455.95	8.053
456.30	8.055
456.65	8.087
456.99	8.093
457.34	8.103
457.69	8.118
458.03	8.137
458.38	8.145
458.73	8.168
459.07	8.183
459.42	8.192
459.76	8.212
460.11	8.243
460.46	8.246
460.80	8.262
461.15	8.282
461.49	8.294
461.84	8.289
462.19	8.303
462.53	8.313
462.88	8.354
463.22	8.370
463.57	8.376
463.91	8.384
464.26	8.397
464.61	8.415
464.95	8.415
465.30	8.453
465.64	8.462
465.99	8.482
466.33	8.511
466.68	8.514
467.02	8.569
467.37	8.597
467.71	8.624
468.06	8.643
468.41	8.673
468.75	8.696
469.10	8.684
469.44	8.696
469.79	8.713
470.13	8.715
470.48	8.726
470.82	8.706
471.17	8.702
471.51	8.696
471.86	8.714
472.20	8.719
472.55	8.723
472.89	8.739
473.23	8.755
473.58	8.742
473.92	8.735
474.27	8.731
474.61	8.725
474.96	8.721
475.30	8.738
475.65	8.714
475.99	8.702
476.34	8.718
476.68	8.740
477.02	8.743
477.37	8.749
477.71	8.755
478.06	8.773
478.40	8.789
478.75	8.842
479.09	8.903
479.43	9.073
479.78	9.312
480.12	9.557
480.47	9.796
480.81	10.047
481.15	10.295
481.50	10.542
481.84	10.826
482.19	11.146
482.53	11.447
482.87	11.689
483.22	11.782
483.56	11.727
483.90	11.594
484.25	11.415
484.59	11.183
484.94	10.922
485.28	10.651
485.62	10.314
485.97	9.952
486.31	9.625
486.65	9.373
487.00	9.196
487.34	9.107
487.68	9.086
488.03	9.087
488.37	9.117
488.71	9.173
489.06	9.218
489.40	9.290
489.74	9.361
490.09	9.414
490.43	9.464
490.77	9.517
491.11	9.575
491.46	9.590
491.80	9.620
492.14	9.646
492.49	9.668
492.83	9.713
493.17	9.730
493.51	9.760
493.86	9.815
494.20	9.867
494.54	9.903
494.88	9.948
495.23	9.993
495.57	10.043
495.91	10.101
496.25	10.135
496.60	10.178
496.94	10.242
497.28	10.309
497.62	10.363
497.97	10.409
498.31	10.483
498.65	10.538
498.99	10.626
499.33	10.690
499.68	10.764
500.02	10.856
500.36	10.907
500.70	10.969
501.04	11.024
501.39	11.096
501.73	11.164
502.07	11.237
502.41	11.301
502.75	11.349
503.09	11.420
503.44	11.483
503.78	11.561
504.12	11.659
504.46	11.731
504.80	11.809
505.14	11.892
505.49	11.956
505.83	12.029
506.17	12.109
506.51	12.188
506.85	12.268
507.19	12.331
507.53	12.390
507.87	12.447
508.22	12.521
508.56	12.600
508.90	12.683
509.24	12.755
509.58	12.824
509.92	12.885
510.26	12.975
510.60	13.034
510.94	13.097
511.28	13.159
511.63	13.238
511.97	13.310
512.31	13.393
512.65	13.457
512.99	13.531
513.33	13.604
513.67	13.688
514.01	13.735
514.35	13.817
514.69	13.911
515.03	13.985
515.37	14.053
515.71	14.114
516.05	14.152
516.39	14.197
516.73	14.247
517.07	14.292
517.41	14.335
517.75	14.383
518.09	14.419
518.43	14.466
518.77	14.511
519.11	14.553
519.45	14.596
519.79	14.633
520.13	14.667
520.47	14.720
520.81	14.784
521.15	14.847
521.49	14.896
521.83	14.961
522.17	14.997
522.51	15.056
522.85	15.104
523.19	15.200
523.53	15.327
523.87	15.456
524.21	15.606
524.55	15.787
524.89	15.970
525.23	16.174
525.57	16.342
525.91	16.521
526.25	16.687
526.58	16.860
526.92	16.997
527.26	17.077
527.60	17.045
527.94	16.891
528.28	16.696
528.62	16.518
528.96	16.392
529.30	16.301
529.64	16.173
529.97	16.046
530.31	15.900
530.65	15.763
530.99	15.679
531.33	15.719
531.67	15.902
532.01	16.080
532.35	16.219
532.68	16.256
533.02	16.258
533.36	16.266
533.70	16.275
534.04	16.272
534.38	16.272
534.71	16.270
535.05	16.271
535.39	16.251
535.73	16.252
536.07	16.262
536.41	16.278
536.74	16.304
537.08	16.356
537.42	16.389
537.76	16.424
538.10	16.469
538.43	16.485
538.77	16.531
539.11	16.576
539.45	16.625
539.79	16.667
540.12	16.702
540.46	16.715
540.80	16.695
541.14	16.692
541.47	16.698
541.81	16.680
542.15	16.686
542.49	16.663
542.82	16.634
543.16	16.600
543.50	16.545
543.84	16.506
544.17	16.497
544.51	16.506
544.85	16.500
545.18	16.502
545.52	16.504
545.86	16.510
546.20	16.516
546.53	16.527
546.87	16.527
547.21	16.568
547.54	16.577
547.88	16.575
548.22	16.601
548.55	16.613
548.89	16.609
549.23	16.624
549.56	16.632
549.90	16.626
550.24	16.613
550.57	16.623
550.91	16.604
551.25	16.612
551.58	16.616
551.92	16.617
552.26	16.631
552.59	16.636
552.93	16.653
553.27	16.655
553.60	16.668
553.94	16.692
554.27	16.711
554.61	16.716
554.95	16.729
555.28	16.716
555.62	16.698
555.95	16.690
556.29	16.691
556.63	16.694
556.96	16.709
557.30	16.723
557.63	16.721
557.97	16.688
558.31	16.695
558.64	16.688
558.98	16.701
559.31	16.685
559.65	16.655
559.98	16.638
560.32	16.616
560.65	16.605
560.99	16.573
561.33	16.554
561.66	16.552
562.00	16.537
562.33	16.561
562.67	16.561
563.00	16.572
563.34	16.577
563.67	16.567
564.01	16.553
564.34	16.527
564.68	16.539
565.01	16.559
565.35	16.561
565.68	16.559
566.02	16.520
566.35	16.486
566.69	16.477
567.02	16.447
567.36	16.433
567.69	16.415
568.03	16.404
568.36	16.403
568.69	16.345
569.03	16.314
569.36	16.290
569.70	16.263
570.03	16.250
570.37	16.239
570.70	16.254
571.04	16.258
571.37	16.258
571.70	16.248
572.04	16.215
572.37	16.212
572.71	16.201
573.04	16.186
573.37	16.182
573.71	16.184
574.04	16.189
574.38	16.163
574.71	16.142
575.04	16.123
575.38	16.113
575.71	16.105
576.05	16.138
576.38	16.130
576.71	16.161
577.05	16.162
577.38	16.148
577.71	16.131
578.05	16.105
578.38	16.100
578.71	16.098
579.05	16.113
579.38	16.112
579.71	16.051
580.05	16.064
580.38	16.033
580.71	16.002
581.05	15.988
581.38	15.941
581.71	15.936
582.05	15.898
582.38	15.844
582.71	15.809
583.04	15.782
583.38	15.764
583.71	15.737
584.04	15.688
584.38	15.663
584.71	15.643
585.04	15.612
585.37	15.587
585.71	15.580
586.04	15.579
586.37	15.544
586.70	15.514
587.04	15.492
587.37	15.455
587.70	15.436
588.03	15.425
588.37	15.392
588.70	15.380
589.03	15.363
589.36	15.313
589.69	15.284
590.03	15.247
590.36	15.213
590.69	15.205
591.02	15.164
591.35	15.146
591.69	15.111
592.02	15.104
592.35	15.055
592.68	15.032
593.01	15.025
593.35	14.972
593.68	14.939
594.01	14.881
594.34	14.827
594.67	14.789
595.00	14.731
595.34	14.705
595.67	14.654
596.00	14.622
596.33	14.602
596.66	14.575
596.99	14.586
597.32	14.574
597.65	14.587
597.99	14.556
598.32	14.525
598.65	14.506
598.98	14.468
599.31	14.441
599.64	14.425
599.97	14.366
600.30	14.328
600.63	14.271
600.96	14.248
601.30	14.209
601.63	14.197
601.96	14.206
602.29	14.210
602.62	14.179
602.95	14.150
603.28	14.110
603.61	14.077
603.94	14.040
604.27	14.032
604.60	13.972
604.93	13.945
605.26	13.905
605.59	13.860
605.92	13.828
606.25	13.800
606.58	13.788
606.91	13.772
607.24	13.777
607.57	13.779
607.90	13.772
608.23	13.791
608.56	13.777
608.89	13.741
609.22	13.710
609.55	13.663
609.88	13.631
610.21	13.563
610.54	13.525
610.87	13.475
611.20	13.415
611.53	13.333
611.86	13.245
612.19	13.199
612.52	13.193
612.85	13.132
613.18	13.114
613.51	13.083
613.84	13.071
614.17	13.044
614.49	13.017
614.82	12.983
615.15	12.985
615.48	12.992
615.81	12.955
616.14	12.923
616.47	12.929
616.80	12.887
617.13	12.830
617.46	12.784
617.78	12.786
618.11	12.767
618.44	12.737
618.77	12.686
619.10	12.672
619.43	12.689
619.76	12.664
620.09	12.633
620.41	12.603
620.74	12.600
621.07	12.563
621.40	12.515
621.73	12.465
622.06	12.473
622.38	12.485
622.71	12.447
623.04	12.384
623.37	12.381
623.70	12.397
624.02	12.393
624.35	12.395
624.68	12.389
625.01	12.364
625.34	12.350
625.66	12.296
625.99	12.253
626.32	12.212
626.65	12.187
626.98	12.136
627.30	12.080
627.63	12.009
627.96	11.973
628.29	11.921
628.61	11.877
628.94	11.802
629.27	11.786
629.60	11.755
629.92	11.751
630.25	11.717
630.58	11.649
630.91	11.637
631.23	11.656
631.56	11.629
631.89	11.640
632.21	11.598
632.54	11.623
632.87	11.591
633.19	11.540
633.52	11.500
633.85	11.508
634.18	11.494
634.50	11.442
634.83	11.401
635.16	11.347
635.48	11.292
635.81	11.294
636.14	11.279
636.46	11.238
636.79	11.208
637.11	11.168
637.44	11.110
637.77	11.107
638.09	11.068
638.42	11.014
638.75	11.010
639.07	11.001
639.40	10.953
639.73	10.885
640.05	10.869
640.38	10.863
640.70	10.804
641.03	10.769
641.36	10.748
641.68	10.717
642.01	10.713
642.33	10.678
642.66	10.616
642.98	10.624
643.31	10.607
643.64	10.560
643.96	10.522
644.29	10.511
644.61	10.508
644.94	10.491
645.26	10.501
645.59	10.438
645.91	10.409
646.24	10.416
646.56	10.369
646.89	10.308
647.22	10.301
647.54	10.244
647.87	10.219
648.19	10.162
648.52	10.101
648.84	10.075
649.17	10.074
649.49	10.041
