OOIBase32 Version 2.0.0.6 Data File
++++++++++++++++++++++++++++++++++++
Date: 01-18-2012, 22:25:38
User: Valued Ocean Optics Customer
Spectrometer Serial Number: USB2E2917
Spectrometer Channel: Master
Integration Time (msec): 5
Spectra Averaged: 10
Boxcar Smoothing: 5
Correct for Electrical Dark: Enabled
Time Normalized: Disabled
Dual-beam Reference: Disabled
Reference Channel: Master
Temperature: Not acquired
Spectrometer Type: S2000
ADC Type: USB2000
Number of Pixels in File: 2048
Graph Title: 
>>>>>Begin Spectral Data<<<<<
180.30	0.000
180.67	0.000
181.03	-2.161
181.40	-1.974
181.77	0.539
182.14	0.126
182.51	1.039
182.88	1.426
183.25	1.939
183.62	0.726
183.99	2.639
184.36	1.726
184.73	0.039
185.10	1.326
185.46	0.939
185.83	1.226
186.20	0.839
186.57	-0.374
186.94	0.439
187.31	-0.174
187.68	-0.461
188.05	0.106
188.42	0.059
188.78	0.097
189.15	0.077
189.52	-0.003
189.89	-0.168
190.26	-0.149
190.63	-0.259
191.00	-0.321
191.37	-0.468
191.73	-0.567
192.10	-0.641
192.47	-0.721
192.84	-0.950
193.21	-1.049
193.58	-0.941
193.94	-0.885
194.31	-1.104
194.68	-1.176
195.05	-1.204
195.42	-1.112
195.79	-1.159
196.15	-1.158
196.52	-1.259
196.89	-1.176
197.26	-1.268
197.63	-1.594
198.00	-1.595
198.36	-1.540
198.73	-1.623
199.10	-1.576
199.47	-1.613
199.84	-1.585
200.20	-1.704
200.57	-1.767
200.94	-1.768
201.31	-1.740
201.68	-1.577
202.04	-1.676
202.41	-1.813
202.78	-1.958
203.15	-2.113
203.51	-2.212
203.88	-2.386
204.25	-2.458
204.62	-2.586
204.98	-2.712
205.35	-2.941
205.72	-3.103
206.09	-3.223
206.46	-3.203
206.82	-3.168
207.19	-3.149
207.56	-3.313
207.92	-3.440
208.29	-3.468
208.66	-3.440
209.03	-3.432
209.39	-3.512
209.76	-3.477
210.13	-3.412
210.50	-3.513
210.86	-3.412
211.23	-3.477
211.60	-3.503
211.96	-3.295
212.33	-3.412
212.70	-3.541
213.07	-3.740
213.43	-3.704
213.80	-3.867
214.17	-3.968
214.53	-4.176
214.90	-4.268
215.27	-4.221
215.63	-4.113
216.00	-4.285
216.37	-4.241
216.74	-4.176
217.10	-4.050
217.47	-4.103
217.84	-4.059
218.20	-4.140
218.57	-3.904
218.94	-3.994
219.30	-4.113
219.67	-4.294
220.04	-4.241
220.40	-4.249
220.77	-4.259
221.13	-4.394
221.50	-4.423
221.87	-4.494
222.23	-4.432
222.60	-4.694
222.97	-4.750
223.33	-4.694
223.70	-4.795
224.07	-4.994
224.43	-5.104
224.80	-5.167
225.16	-5.204
225.53	-5.030
225.90	-5.123
226.26	-5.103
226.63	-5.077
226.99	-5.203
227.36	-5.350
227.73	-5.085
228.09	-5.023
228.46	-4.976
228.82	-4.859
229.19	-4.785
229.56	-4.832
229.92	-4.667
230.29	-4.713
230.65	-4.703
231.02	-4.504
231.38	-4.476
231.75	-4.668
232.12	-4.867
232.48	-4.995
232.85	-5.112
233.21	-5.286
233.58	-5.567
233.94	-5.732
234.31	-5.749
234.68	-5.768
235.04	-5.894
235.41	-5.977
235.77	-5.821
236.14	-5.532
236.50	-5.621
236.87	-5.686
237.23	-5.603
237.60	-5.477
237.96	-5.503
238.33	-5.541
238.69	-5.430
239.06	-5.332
239.42	-5.194
239.79	-5.459
240.15	-5.630
240.52	-5.586
240.88	-5.649
241.25	-5.686
241.61	-5.758
241.98	-5.668
242.34	-5.621
242.71	-5.695
243.07	-5.830
243.44	-6.041
243.80	-6.049
244.17	-6.123
244.53	-6.103
244.90	-5.977
245.26	-5.967
245.63	-5.950
245.99	-5.921
246.36	-6.095
246.72	-6.258
247.09	-6.268
247.45	-6.394
247.81	-6.377
248.18	-6.258
248.54	-6.286
248.91	-6.367
249.27	-6.395
249.64	-6.340
250.00	-6.504
250.36	-6.440
250.73	-6.313
251.09	-6.267
251.46	-6.159
251.82	-6.240
252.19	-6.286
252.55	-6.294
252.91	-6.295
253.28	-6.230
253.64	-6.304
254.01	-6.212
254.37	-6.277
254.73	-6.294
255.10	-6.350
255.46	-6.303
255.83	-6.268
256.19	-6.185
256.55	-6.013
256.92	-6.121
257.28	-6.177
257.65	-6.094
258.01	-6.250
258.37	-6.285
258.74	-6.295
259.10	-6.330
259.46	-6.223
259.83	-6.140
260.19	-6.286
260.55	-6.449
260.92	-6.377
261.28	-6.321
261.64	-6.386
262.01	-6.312
262.37	-6.250
262.73	-6.267
263.10	-6.304
263.46	-6.412
263.82	-6.450
264.19	-6.530
264.55	-6.541
264.91	-6.594
265.28	-6.804
265.64	-6.894
266.00	-6.932
266.37	-6.940
266.73	-7.004
267.09	-6.912
267.46	-7.032
267.82	-6.994
268.18	-6.804
268.54	-6.621
268.91	-6.604
269.27	-6.494
269.63	-6.368
270.00	-6.258
270.36	-6.295
270.72	-6.221
271.08	-6.377
271.45	-6.303
271.81	-6.286
272.17	-6.349
272.53	-6.586
272.90	-6.603
273.26	-6.541
273.62	-6.630
273.98	-6.704
274.35	-6.603
274.71	-6.695
275.07	-6.440
275.43	-6.468
275.80	-6.485
276.16	-6.450
276.52	-6.376
276.88	-6.341
277.25	-6.376
277.61	-6.250
277.97	-6.221
278.33	-6.104
278.69	-6.103
279.06	-6.268
279.42	-6.130
279.78	-6.141
280.14	-6.176
280.50	-6.268
280.87	-6.312
281.23	-6.268
281.59	-6.240
281.95	-6.377
282.31	-6.476
282.68	-6.450
283.04	-6.476
283.40	-6.513
283.76	-6.503
284.12	-6.632
284.48	-6.440
284.85	-6.295
285.21	-6.303
285.57	-6.468
285.93	-6.240
286.29	-6.241
286.65	-6.240
287.02	-6.168
287.38	-6.294
287.74	-6.241
288.10	-6.185
288.46	-6.195
288.82	-6.294
289.18	-6.304
289.54	-6.294
289.91	-6.395
290.27	-6.421
290.63	-6.323
290.99	-6.285
291.35	-6.223
291.71	-6.167
292.07	-6.104
292.43	-6.312
292.79	-6.277
293.16	-6.249
293.52	-6.132
293.88	-6.149
294.24	-6.213
294.60	-6.321
294.96	-6.477
295.32	-6.430
295.68	-6.550
296.04	-6.540
296.40	-6.241
296.76	-6.276
297.12	-6.377
297.49	-6.485
297.85	-6.450
298.21	-6.303
298.57	-6.132
298.93	-6.021
299.29	-5.932
299.65	-6.030
300.01	-6.050
300.37	-6.230
300.73	-6.323
301.09	-6.276
301.45	-6.313
301.81	-6.340
302.17	-6.404
302.53	-6.467
302.89	-6.550
303.25	-6.567
303.61	-6.595
303.97	-6.485
304.33	-6.332
304.69	-6.194
305.05	-6.150
305.41	-6.003
305.77	-5.977
306.13	-5.976
306.49	-5.977
306.85	-5.830
307.21	-5.923
307.57	-5.840
307.93	-5.995
308.29	-6.185
308.65	-6.159
309.01	-6.149
309.37	-6.123
309.73	-6.049
310.09	-5.950
310.45	-5.903
310.81	-5.950
311.17	-5.885
311.53	-5.950
311.89	-5.821
312.25	-5.641
312.61	-5.585
312.96	-5.586
313.32	-5.603
313.68	-5.595
314.04	-5.576
314.40	-5.704
314.76	-5.676
315.12	-5.668
315.48	-5.540
315.84	-5.559
316.20	-5.667
316.56	-5.713
316.92	-5.667
317.27	-5.595
317.63	-5.476
317.99	-5.577
318.35	-5.612
318.71	-5.595
319.07	-5.512
319.43	-5.459
319.79	-5.385
320.15	-5.268
320.50	-5.267
320.86	-5.250
321.22	-5.230
321.58	-5.359
321.94	-5.330
322.30	-5.104
322.66	-5.040
323.01	-5.059
323.37	-5.112
323.73	-5.286
324.09	-5.321
324.45	-5.241
324.81	-5.167
325.17	-5.295
325.52	-5.076
325.88	-4.950
326.24	-4.994
326.60	-5.104
326.96	-5.030
327.31	-4.841
327.67	-4.558
328.03	-4.595
328.39	-4.658
328.75	-4.886
329.11	-4.803
329.46	-4.941
329.82	-5.021
330.18	-4.986
330.54	-4.740
330.90	-4.750
331.25	-4.903
331.61	-5.059
331.97	-4.967
332.33	-4.959
332.68	-4.621
333.04	-4.641
333.40	-4.667
333.76	-4.623
334.11	-4.658
334.47	-4.741
334.83	-4.821
335.19	-4.650
335.54	-4.512
335.90	-4.477
336.26	-4.340
336.62	-4.423
336.97	-4.221
337.33	-4.132
337.69	-4.249
338.05	-4.013
338.40	-3.967
338.76	-3.823
339.12	-3.867
339.48	-3.841
339.83	-3.885
340.19	-3.868
340.55	-3.812
340.90	-3.795
341.26	-3.749
341.62	-3.459
341.97	-3.594
342.33	-3.604
342.69	-3.540
343.04	-3.532
343.40	-3.576
343.76	-3.432
344.12	-3.458
344.47	-3.423
344.83	-3.485
345.19	-3.450
345.54	-3.503
345.90	-3.450
346.26	-3.403
346.61	-3.413
346.97	-3.394
347.32	-3.295
347.68	-3.358
348.04	-3.423
348.39	-3.530
348.75	-3.686
349.11	-3.821
349.46	-3.823
349.82	-3.821
350.18	-3.713
350.53	-3.658
350.89	-3.513
351.24	-3.467
351.60	-3.413
351.96	-3.385
352.31	-3.350
352.67	-3.112
353.02	-2.941
353.38	-2.949
353.74	-3.132
354.09	-3.267
354.45	-3.395
354.80	-3.458
355.16	-3.541
355.52	-3.440
355.87	-3.359
356.23	-3.349
356.58	-3.413
356.94	-3.376
357.29	-3.377
357.65	-3.167
358.00	-3.077
358.36	-2.940
358.72	-2.959
359.07	-2.930
359.43	-2.977
359.78	-3.012
360.14	-2.841
360.49	-2.867
360.85	-2.804
361.20	-2.830
361.56	-2.723
361.91	-2.558
362.27	-2.432
362.62	-2.212
362.98	-2.013
363.33	-1.867
363.69	-1.650
364.04	-1.440
364.40	-1.113
364.75	-0.967
365.11	-0.595
365.46	-0.403
365.82	-0.250
366.17	-0.230
366.53	-0.141
366.88	0.033
367.24	0.214
367.59	0.551
367.95	0.541
368.30	0.570
368.66	0.750
369.01	0.824
369.37	0.796
369.72	0.760
370.08	1.014
370.43	1.179
370.78	1.359
371.14	1.515
371.49	1.659
371.85	1.860
372.20	2.023
372.56	2.170
372.91	2.332
373.26	2.497
373.62	2.787
373.97	2.924
374.33	3.077
374.68	3.206
375.03	3.214
375.39	3.160
375.74	3.296
376.10	3.442
376.45	3.577
376.80	3.624
377.16	3.687
377.51	3.660
377.87	3.605
378.22	3.651
378.57	3.605
378.93	3.815
379.28	3.887
379.63	3.933
379.99	3.932
380.34	3.651
380.70	3.750
381.05	3.842
381.40	3.987
381.76	4.124
382.11	4.096
382.46	4.097
382.82	4.077
383.17	4.188
383.52	4.287
383.88	4.470
384.23	4.896
384.58	4.951
384.94	5.287
385.29	5.424
385.64	5.523
385.99	5.788
386.35	6.059
386.70	6.179
387.05	6.359
387.41	6.479
387.76	6.459
388.11	6.370
388.47	6.587
388.82	6.433
389.17	6.468
389.52	6.688
389.88	6.623
390.23	6.551
390.58	6.696
390.93	6.588
391.29	6.641
391.64	6.715
391.99	6.787
392.34	6.842
392.70	7.105
393.05	7.360
393.40	7.277
393.75	7.551
394.11	7.723
394.46	7.833
394.81	8.041
395.16	8.151
395.52	8.314
395.87	8.724
396.22	8.841
396.57	8.970
396.92	9.150
397.28	9.479
397.63	9.687
397.98	9.942
398.33	10.287
398.68	10.524
399.04	10.696
399.39	11.051
399.74	10.996
400.09	11.260
400.44	11.341
400.80	11.206
401.15	11.414
401.50	11.433
401.85	11.423
402.20	11.233
402.55	11.268
402.90	11.397
403.26	11.323
403.61	11.588
403.96	11.650
404.31	11.742
404.66	11.877
405.01	11.670
405.36	11.768
405.72	11.979
406.07	12.132
406.42	12.242
406.77	12.214
407.12	12.470
407.47	12.514
407.82	12.479
408.17	12.714
408.53	12.960
408.88	13.141
409.23	13.297
409.58	13.314
409.93	13.433
410.28	13.559
410.63	13.897
410.98	14.050
411.33	14.015
411.68	14.187
412.03	13.988
412.38	14.005
412.73	14.315
413.09	14.205
413.44	14.288
413.79	14.468
414.14	14.688
414.49	14.696
414.84	14.715
415.19	14.750
415.54	14.824
415.89	15.087
416.24	15.160
416.59	15.132
416.94	15.270
417.29	15.332
417.64	15.206
417.99	15.177
418.34	15.224
418.69	15.050
419.04	15.188
419.39	15.141
419.74	15.270
420.09	15.332
420.44	15.270
420.79	15.496
421.14	15.615
421.49	15.668
421.84	15.679
422.19	15.705
422.54	15.951
422.89	16.023
423.24	16.133
423.59	16.096
423.94	16.133
424.29	16.341
424.64	16.351
424.99	16.405
425.34	16.315
425.68	16.405
426.03	16.370
426.38	16.187
426.73	16.215
427.08	16.150
427.43	16.124
427.78	16.177
428.13	16.179
428.48	16.050
428.83	15.960
429.18	16.159
429.53	16.079
429.87	16.005
430.22	16.306
430.57	16.341
430.92	16.533
431.27	16.632
431.62	16.706
431.97	16.705
432.32	16.870
432.67	17.023
433.01	17.242
433.36	17.450
433.71	17.751
434.06	17.777
434.41	17.870
434.76	17.841
435.11	17.988
435.45	17.914
435.80	17.942
436.15	17.868
436.50	18.006
436.85	17.950
437.20	17.915
437.54	17.932
437.89	18.015
438.24	18.123
438.59	18.470
438.94	18.477
439.29	18.579
439.63	18.677
439.98	18.851
440.33	18.950
440.68	19.233
441.03	19.387
441.37	19.433
441.72	19.541
442.07	19.633
442.42	19.505
442.76	19.633
443.11	19.841
443.46	20.006
443.81	20.141
444.16	20.197
444.50	20.105
444.85	20.142
445.20	20.214
445.55	20.406
445.89	20.287
446.24	20.488
446.59	20.687
446.94	20.733
447.28	20.741
447.63	20.851
447.98	20.968
448.32	21.015
448.67	20.932
449.02	21.142
449.37	21.014
449.71	21.151
450.06	20.914
450.41	20.851
450.75	20.759
451.10	20.851
451.45	20.723
451.79	20.697
452.14	20.714
452.49	20.815
452.84	20.805
453.18	20.742
453.53	20.896
453.88	20.942
454.22	20.841
454.57	21.060
454.92	21.141
455.26	21.324
455.61	21.459
455.95	21.715
456.30	21.859
456.65	21.924
456.99	22.141
457.34	22.288
457.69	22.377
458.03	22.770
458.38	22.868
458.73	22.842
459.07	22.968
459.42	22.970
459.76	23.005
460.11	23.115
460.46	22.941
460.80	23.106
461.15	23.350
461.49	23.633
461.84	23.541
462.19	23.406
462.53	23.441
462.88	23.470
463.22	23.659
463.57	23.670
463.91	23.732
464.26	24.006
464.61	24.014
464.95	23.879
465.30	23.832
465.64	23.997
465.99	24.077
466.33	24.151
466.68	24.187
467.02	24.133
467.37	24.132
467.71	24.542
468.06	24.768
468.41	24.851
468.75	24.905
469.10	25.160
469.44	25.196
469.79	25.479
470.13	25.750
470.48	25.979
470.82	26.077
471.17	26.315
471.51	26.296
471.86	26.497
472.20	26.705
472.55	26.897
472.89	27.023
473.23	27.360
473.58	27.687
473.92	27.951
474.27	27.950
474.61	28.215
474.96	28.514
475.30	28.724
475.65	28.923
475.99	29.188
476.34	29.450
476.68	29.751
477.02	29.996
477.37	30.360
477.71	30.587
478.06	31.042
478.40	31.332
478.75	31.542
479.09	31.687
479.43	31.906
479.78	32.205
480.12	32.515
480.47	32.668
480.81	32.824
481.15	32.787
481.50	32.851
481.84	32.987
482.19	33.042
482.53	32.968
482.87	33.060
483.22	32.950
483.56	32.815
483.90	32.732
484.25	32.670
484.59	32.459
484.94	32.588
485.28	32.632
485.62	32.760
485.97	33.132
486.31	33.315
486.65	33.487
487.00	33.797
487.34	34.050
487.68	34.133
488.03	34.541
488.37	34.960
488.71	35.123
489.06	35.388
489.40	35.632
489.74	35.506
490.09	35.723
490.43	35.806
490.77	35.859
491.11	36.042
491.46	36.477
491.80	36.479
492.14	36.587
492.49	36.679
492.83	36.668
493.17	36.533
493.51	36.723
493.86	36.815
494.20	36.823
494.54	36.760
494.88	36.587
495.23	36.451
495.57	36.496
495.91	36.406
496.25	36.314
496.60	36.270
496.94	36.377
497.28	36.242
497.62	36.214
497.97	36.079
498.31	36.114
498.65	36.151
498.99	35.968
499.33	35.888
499.68	35.723
500.02	35.742
500.36	35.868
500.70	35.851
501.04	35.968
501.39	35.979
501.73	36.132
502.07	36.233
502.41	36.241
502.75	36.342
503.09	36.314
503.44	36.515
503.78	36.487
504.12	36.570
504.46	36.605
504.80	36.560
505.14	36.705
505.49	36.697
505.83	36.632
506.17	36.751
506.51	36.887
506.85	37.006
507.19	37.050
507.53	37.215
507.87	37.150
508.22	37.079
508.56	37.241
508.90	37.070
509.24	37.059
509.58	37.124
509.92	37.250
510.26	37.015
510.60	36.950
510.94	36.970
511.28	36.823
511.63	36.842
511.97	36.805
512.31	36.551
512.65	36.387
512.99	36.415
513.33	36.332
513.67	35.951
514.01	35.850
514.35	35.906
514.69	35.796
515.03	35.897
515.37	35.805
515.71	35.870
516.05	36.032
516.39	36.260
516.73	36.268
517.07	36.370
517.41	36.632
517.75	37.024
518.09	37.059
518.43	37.233
518.77	37.314
519.11	37.560
519.45	37.859
519.79	38.051
520.13	37.977
520.47	38.170
520.81	38.387
521.15	38.397
521.49	38.214
521.83	38.388
522.17	38.477
522.51	38.206
522.85	37.896
523.19	37.742
523.53	37.550
523.87	37.697
524.21	37.596
524.55	37.660
524.89	37.796
525.23	38.070
525.57	38.032
525.91	38.079
526.25	38.296
526.58	38.651
526.92	38.968
527.26	39.133
527.60	39.132
527.94	39.179
528.28	38.850
528.62	38.933
528.96	38.777
529.30	38.579
529.64	38.405
529.97	38.497
530.31	38.387
530.65	37.988
530.99	37.896
531.33	38.024
531.67	38.087
532.01	38.279
532.35	38.096
532.68	38.251
533.02	38.368
533.36	38.551
533.70	38.523
534.04	38.506
534.38	38.577
534.71	38.615
535.05	38.377
535.39	38.151
535.73	38.023
536.07	37.824
536.41	37.614
536.74	37.288
537.08	36.905
537.42	36.424
537.76	36.187
538.10	35.924
538.43	35.505
538.77	35.351
539.11	34.987
539.45	34.933
539.79	34.777
540.12	34.688
540.46	34.787
540.80	34.606
541.14	34.577
541.47	34.379
541.81	34.223
542.15	34.124
542.49	33.950
542.82	33.970
543.16	33.487
543.50	33.133
543.84	32.777
544.17	32.279
544.51	32.077
544.85	31.924
545.18	31.777
545.52	31.588
545.86	31.341
546.20	31.106
546.53	30.850
546.87	30.797
547.21	30.805
547.54	30.697
547.88	30.532
548.22	30.460
548.55	30.132
548.89	29.879
549.23	29.550
549.56	29.342
549.90	29.114
550.24	28.833
550.57	28.596
550.91	28.315
551.25	28.068
551.58	27.979
551.92	27.705
552.26	27.670
552.59	27.477
552.93	27.415
553.27	27.296
553.60	27.251
553.94	26.841
554.27	26.588
554.61	26.323
554.95	26.006
555.28	25.841
555.62	25.670
555.95	25.205
556.29	25.015
556.63	24.723
556.96	24.479
557.30	24.114
557.63	24.424
557.97	24.359
558.31	24.215
558.64	24.041
558.98	23.870
559.31	23.468
559.65	23.333
559.98	23.068
560.32	22.842
560.65	22.677
560.99	22.533
561.33	22.187
561.66	22.042
562.00	22.032
562.33	21.933
562.67	21.723
563.00	21.815
563.34	21.759
563.67	21.660
564.01	21.677
564.34	21.524
564.68	21.341
565.01	21.288
565.35	21.050
565.68	20.697
566.02	20.514
566.35	20.342
566.69	19.959
567.02	19.933
567.36	19.841
567.69	19.588
568.03	19.468
568.36	19.542
568.69	19.287
569.03	19.033
569.36	18.996
569.70	18.815
570.03	18.687
570.37	18.688
570.70	18.632
571.04	18.460
571.37	18.368
571.70	18.360
572.04	18.196
572.37	18.124
572.71	18.077
573.04	17.906
573.37	17.805
573.71	17.742
574.04	17.541
574.38	17.406
574.71	17.387
575.04	17.370
575.38	17.096
575.71	16.870
576.05	16.877
576.38	16.833
576.71	17.014
577.05	17.224
577.38	17.077
577.71	17.279
578.05	17.096
578.38	17.106
578.71	17.014
579.05	17.006
579.38	17.141
579.71	16.988
580.05	16.859
580.38	16.660
580.71	16.477
581.05	16.533
581.38	16.450
581.71	16.442
582.05	16.468
582.38	16.360
582.71	16.323
583.04	16.133
583.38	15.941
583.71	15.815
584.04	15.577
584.38	15.370
584.71	15.050
585.04	14.751
585.37	14.532
585.71	14.133
586.04	13.723
586.37	13.515
586.70	13.159
587.04	12.970
587.37	12.750
587.70	12.615
588.03	12.277
588.37	12.233
588.70	12.032
589.03	11.770
589.36	11.605
589.69	11.742
590.03	11.559
590.36	11.515
590.69	11.641
591.02	11.697
591.35	11.596
591.69	11.760
592.02	11.732
592.35	11.679
592.68	11.659
593.01	11.660
593.35	11.432
593.68	11.360
594.01	11.487
594.34	11.360
594.67	11.277
595.00	11.342
595.34	11.314
595.67	11.133
596.00	11.323
596.33	11.570
596.66	11.487
596.99	11.642
597.32	11.596
597.65	11.424
597.99	11.405
598.32	11.351
598.65	11.268
598.98	11.233
599.31	11.341
599.64	11.160
599.97	11.041
600.30	11.060
600.63	11.050
600.96	11.097
601.30	11.114
601.63	11.106
601.96	11.123
602.29	10.970
602.62	10.750
602.95	10.706
603.28	10.696
603.61	10.506
603.94	10.387
604.27	10.224
604.60	10.105
604.93	10.133
605.26	10.032
605.59	9.924
605.92	9.877
606.25	9.970
606.58	10.050
606.91	9.960
607.24	9.987
607.57	9.870
607.90	9.650
608.23	9.551
608.56	9.177
608.89	9.179
609.22	9.041
609.55	8.960
609.88	8.905
610.21	8.797
610.54	8.432
610.87	8.351
611.20	8.277
611.53	8.415
611.86	8.396
612.19	8.433
612.52	8.259
612.85	8.406
613.18	8.532
613.51	8.324
613.84	8.205
614.17	8.351
614.49	8.214
614.82	8.170
615.15	8.032
615.48	8.106
615.81	8.205
616.14	8.060
616.47	7.732
616.80	7.733
617.13	7.741
617.46	7.542
617.78	7.623
618.11	7.606
618.44	7.587
618.77	7.742
619.10	7.696
619.43	7.633
619.76	7.750
620.09	7.988
620.41	7.832
620.74	7.806
621.07	7.896
621.40	7.760
621.73	7.705
622.06	7.733
622.38	7.505
622.71	7.260
623.04	7.196
623.37	7.097
623.70	6.923
624.02	6.842
624.35	6.659
624.68	6.615
625.01	6.687
625.34	6.533
625.66	6.441
625.99	6.370
626.32	6.396
626.65	6.388
626.98	6.350
627.30	6.315
627.63	6.359
627.96	6.597
628.29	6.668
628.61	6.679
628.94	6.841
629.27	6.788
629.60	6.950
629.92	7.051
630.25	7.096
630.58	7.088
630.91	7.032
631.23	7.060
631.56	6.987
631.89	6.833
632.21	6.732
632.54	6.815
632.87	6.805
633.19	6.670
633.52	6.632
633.85	6.570
634.18	6.577
634.50	6.824
634.83	6.796
635.16	6.733
635.48	6.741
635.81	6.688
636.14	6.696
636.46	6.815
636.79	6.914
637.11	7.060
637.44	6.959
637.77	7.151
