OOIBase32 Version 2.0.0.6 Data File
++++++++++++++++++++++++++++++++++++
Date: 01-18-2012, 22:21:08
User: Valued Ocean Optics Customer
Spectrometer Serial Number: USB2E2917
Spectrometer Channel: Master
Integration Time (msec): 5
Spectra Averaged: 10
Boxcar Smoothing: 5
Correct for Electrical Dark: Enabled
Time Normalized: Disabled
Dual-beam Reference: Disabled
Reference Channel: Master
Temperature: Not acquired
Spectrometer Type: S2000
ADC Type: USB2000
Number of Pixels in File: 2048
Graph Title: 
>>>>>Begin Spectral Data<<<<<
180.30	0.000
180.67	0.000
181.03	-1.135
181.40	-0.203
181.77	-0.535
182.14	-0.703
182.51	0.965
182.88	-0.003
183.25	0.965
183.62	-0.003
183.99	1.665
184.36	1.697
184.73	1.165
185.10	0.897
185.46	0.865
185.83	2.497
186.20	1.865
186.57	-0.603
186.94	-0.235
187.31	-0.703
187.68	0.465
188.05	-0.038
188.42	-0.226
188.78	-0.029
189.15	0.001
189.52	0.134
189.89	0.137
190.26	0.098
190.63	0.237
191.00	0.425
191.37	0.492
191.73	0.398
192.10	0.292
192.47	0.198
192.84	0.101
193.21	0.162
193.58	0.101
193.94	0.025
194.31	-0.026
194.68	0.007
195.05	-0.054
195.42	0.034
195.79	0.019
196.15	-0.029
196.52	0.083
196.89	-0.129
197.26	-0.381
197.63	-0.548
198.00	-0.726
198.36	-0.775
198.73	-0.908
199.10	-1.002
199.47	-1.290
199.84	-1.375
200.20	-1.526
200.57	-1.548
200.94	-1.508
201.31	-1.338
201.68	-1.326
202.04	-1.138
202.41	-1.208
202.78	-1.238
203.15	-1.317
203.51	-1.211
203.88	-1.281
204.25	-1.229
204.62	-1.436
204.98	-1.493
205.35	-1.708
205.72	-1.620
206.09	-1.790
206.46	-1.757
206.82	-1.781
207.19	-1.802
207.56	-1.936
207.92	-1.993
208.29	-2.163
208.66	-2.048
209.03	-2.054
209.39	-2.148
209.76	-2.308
210.13	-2.357
210.50	-2.381
210.86	-2.493
211.23	-2.554
211.60	-2.529
211.96	-2.545
212.33	-2.429
212.70	-2.563
213.07	-2.393
213.43	-2.281
213.80	-2.129
214.17	-2.063
214.53	-2.120
214.90	-2.063
215.27	-1.875
215.63	-1.999
216.00	-2.093
216.37	-2.190
216.74	-2.193
217.10	-2.381
217.47	-2.420
217.84	-2.672
218.20	-2.729
218.57	-2.745
218.94	-2.729
219.30	-2.872
219.67	-2.711
220.04	-2.636
220.40	-2.475
220.77	-2.490
221.13	-2.420
221.50	-2.354
221.87	-2.184
222.23	-2.081
222.60	-1.838
222.97	-1.699
223.33	-1.438
223.70	-0.972
224.07	-0.220
224.43	0.410
224.80	1.380
225.16	2.228
225.53	3.252
225.90	4.246
226.26	5.243
226.63	6.183
226.99	7.362
227.36	8.137
227.73	8.771
228.09	8.901
228.46	9.107
228.82	9.037
229.19	8.980
229.56	8.692
229.92	8.252
230.29	7.719
230.65	7.316
231.02	6.646
231.38	6.243
231.75	5.774
232.12	5.598
232.48	5.210
232.85	5.043
233.21	4.755
233.58	4.662
233.94	4.674
234.31	4.825
234.68	4.755
235.04	4.907
235.41	5.046
235.77	5.334
236.14	5.646
236.50	6.262
236.87	6.892
237.23	7.707
237.60	8.783
237.96	10.125
238.33	11.683
238.69	13.371
239.06	15.074
239.42	16.598
239.79	18.201
240.15	19.734
240.52	20.992
240.88	22.280
241.25	23.837
241.61	25.134
241.98	26.755
242.34	28.252
242.71	30.319
243.07	32.516
243.44	35.237
243.80	38.025
244.17	41.074
244.53	44.262
244.90	47.183
245.26	49.607
245.63	51.510
245.99	52.571
246.36	53.064
246.72	52.662
247.09	51.537
247.45	49.871
247.81	47.764
248.18	45.280
248.54	42.719
248.91	40.189
249.27	37.728
249.64	35.571
250.00	33.837
250.36	32.443
250.73	31.192
251.09	30.125
251.46	29.219
251.82	28.152
252.19	27.355
252.55	26.671
252.91	25.846
253.28	25.234
253.64	25.010
254.01	25.325
254.37	25.946
254.73	27.589
255.10	30.201
255.46	33.934
255.83	38.428
256.19	43.252
256.55	48.228
256.92	53.552
257.28	59.074
257.65	64.216
258.01	68.492
258.37	72.252
258.74	74.483
259.10	75.198
259.46	74.264
259.83	72.416
260.19	69.337
260.55	65.798
260.92	61.974
261.28	57.807
261.64	53.783
262.01	50.043
262.37	46.801
262.73	44.207
263.10	42.574
263.46	41.680
263.82	41.492
264.19	42.216
264.55	43.101
264.91	44.216
265.28	45.474
265.64	46.689
266.00	47.983
266.37	48.980
266.73	50.055
267.09	51.089
267.46	51.983
267.82	52.534
268.18	53.446
268.54	54.734
268.91	55.719
269.27	56.643
269.63	57.710
270.00	58.698
270.36	59.701
270.72	60.607
271.08	61.255
271.45	61.880
271.81	62.201
272.17	61.989
272.53	61.328
272.90	60.762
273.26	60.092
273.62	59.134
273.98	58.074
274.35	57.116
274.71	56.001
275.07	55.071
275.43	54.201
275.80	53.989
276.16	53.801
276.52	53.762
276.88	53.974
277.25	54.325
277.61	54.901
277.97	55.916
278.33	56.928
278.69	58.025
279.06	59.219
279.42	60.834
279.78	62.274
280.14	64.180
280.50	66.110
280.87	68.452
281.23	70.983
281.59	73.352
281.95	75.437
282.31	77.516
282.68	79.692
283.04	82.143
283.40	84.037
283.76	85.743
284.12	87.164
284.48	88.325
284.85	88.892
285.21	88.925
285.57	88.728
285.93	88.662
286.29	88.574
286.65	88.362
287.02	87.619
287.38	86.780
287.74	85.774
288.10	84.752
288.46	83.883
288.82	82.962
289.18	82.237
289.54	81.380
289.91	80.328
290.27	79.162
290.63	77.955
290.99	77.025
291.35	76.692
291.71	76.952
292.07	77.437
292.43	78.652
292.79	80.046
293.16	82.034
293.52	84.610
293.88	87.652
294.24	90.655
294.60	93.971
294.96	97.055
295.32	99.780
295.68	102.128
296.04	103.671
296.40	104.446
296.76	104.689
297.12	103.983
297.49	102.834
297.85	101.164
298.21	99.825
298.57	98.155
298.93	96.798
299.29	95.392
299.65	94.234
300.01	93.701
300.37	93.125
300.73	93.046
301.09	93.462
301.45	94.301
301.81	95.125
302.17	96.010
302.53	97.016
302.89	97.737
303.25	98.389
303.61	98.801
303.97	99.071
304.33	99.719
304.69	100.562
305.05	101.692
305.41	103.125
305.77	104.755
306.13	106.534
306.49	108.837
306.85	111.734
307.21	115.092
307.57	118.689
307.93	122.510
308.29	126.116
308.65	129.764
309.01	132.589
309.37	135.001
309.73	137.043
310.09	138.283
310.45	138.698
310.81	138.264
311.17	137.198
311.53	135.564
311.89	133.271
312.25	131.374
312.61	129.143
312.96	127.474
313.32	125.680
313.68	123.828
314.04	122.580
314.40	121.601
314.76	121.125
315.12	120.737
315.48	120.916
315.84	121.428
316.20	121.816
316.56	122.192
316.92	122.489
317.27	122.855
317.63	123.507
317.99	124.074
318.35	124.952
318.71	125.764
319.07	126.852
319.43	127.755
319.79	129.134
320.15	130.401
320.50	131.834
320.86	133.119
321.22	134.952
321.58	136.819
321.94	139.271
322.30	141.137
322.66	143.034
323.01	144.964
323.37	147.262
323.73	148.801
324.09	149.907
324.45	150.955
324.81	152.189
325.17	152.746
325.52	153.107
325.88	152.819
326.24	152.707
326.60	152.446
326.96	151.989
327.31	151.219
327.67	150.880
328.03	151.292
328.39	151.452
328.75	151.528
329.11	152.043
329.46	152.610
329.82	153.362
330.18	154.328
330.54	155.452
330.90	156.828
331.25	158.116
331.61	159.455
331.97	160.425
332.33	161.764
332.68	163.562
333.04	165.355
333.40	166.889
333.76	168.319
334.11	169.634
334.47	170.828
334.83	172.098
335.19	173.310
335.54	174.698
335.90	175.637
336.26	176.525
336.62	177.164
336.97	177.780
337.33	178.728
337.69	179.998
338.05	181.083
338.40	182.207
338.76	183.155
339.12	184.862
339.48	186.510
339.83	188.362
340.19	190.337
340.55	192.152
340.90	194.119
341.26	196.052
341.62	197.492
341.97	199.234
342.33	201.474
342.69	203.380
343.04	204.964
343.40	205.898
343.76	207.446
344.12	208.825
344.47	210.137
344.83	210.934
345.19	211.919
345.54	212.980
345.90	213.737
346.26	214.580
346.61	215.692
346.97	216.371
347.32	217.319
347.68	218.289
348.04	219.037
348.39	220.052
348.75	221.174
349.11	222.262
349.46	223.219
349.82	224.343
350.18	225.010
350.53	226.143
350.89	227.683
351.24	229.352
351.60	230.583
351.96	232.525
352.31	234.292
352.67	236.589
353.02	238.628
353.38	241.243
353.74	243.892
354.09	246.998
354.45	249.628
354.80	252.116
355.16	255.273
355.52	258.652
355.87	261.864
356.23	265.634
356.58	269.483
356.94	274.125
357.29	278.183
357.65	282.562
358.00	286.719
358.36	291.562
358.72	297.055
359.07	301.671
359.43	306.392
359.78	311.325
360.14	314.474
360.49	317.880
360.85	320.546
361.20	323.380
361.56	325.819
361.91	328.298
362.27	330.001
362.62	331.271
362.98	332.574
363.33	334.016
363.69	334.519
364.04	335.243
364.40	335.783
364.75	336.834
365.11	338.028
365.46	339.007
365.82	340.119
366.17	341.180
366.53	342.755
366.88	344.507
367.24	345.992
367.59	348.089
367.95	351.710
368.30	355.234
368.66	358.301
369.01	361.289
369.37	364.319
369.72	367.143
370.08	370.528
370.43	372.307
370.78	374.274
371.14	376.389
371.49	378.483
371.85	379.607
372.20	381.264
372.56	382.343
372.91	384.655
373.26	386.880
373.62	389.074
373.97	391.534
374.33	395.864
374.68	399.725
375.03	403.137
375.39	406.434
375.74	411.364
376.10	415.907
376.45	421.764
376.80	425.780
377.16	429.328
377.51	433.289
377.87	436.846
378.22	439.534
378.57	442.810
378.93	447.443
379.28	451.937
379.63	454.962
379.99	456.292
380.34	457.271
380.70	457.692
381.05	459.762
381.40	460.574
381.76	461.553
382.11	461.937
382.46	463.034
382.82	463.792
383.17	465.780
383.52	468.137
383.88	472.316
384.23	473.955
384.58	479.525
384.94	483.719
385.29	487.434
385.64	493.146
385.99	502.589
386.35	508.537
386.70	516.352
387.05	521.964
387.41	529.434
387.76	533.683
388.11	540.516
388.47	545.183
388.82	551.534
389.17	557.783
389.52	562.225
389.88	562.828
390.23	565.052
390.58	565.592
390.93	568.443
391.29	567.865
391.64	570.352
391.99	570.292
392.34	572.980
392.70	573.073
393.05	573.280
393.40	574.083
393.75	576.262
394.11	579.846
394.46	581.916
394.81	581.564
395.16	582.953
395.52	584.719
395.87	589.507
396.22	588.319
396.57	591.552
396.92	596.519
397.28	597.662
397.63	599.664
397.98	599.380
398.33	603.464
398.68	611.689
399.04	618.446
399.39	627.989
399.74	632.019
400.09	643.652
400.44	650.519
400.80	659.889
401.15	671.174
401.50	679.834
401.85	691.383
402.20	700.880
402.55	704.092
402.90	709.825
403.26	711.474
403.61	718.989
403.96	718.874
404.31	720.898
404.66	718.519
405.01	717.853
405.36	718.146
405.72	715.543
406.07	711.346
406.42	712.443
406.77	711.992
407.12	713.316
407.47	712.410
407.82	714.253
408.17	715.973
408.53	718.898
408.88	720.210
409.23	719.834
409.58	723.119
409.93	728.243
410.28	728.501
410.63	733.234
410.98	736.119
411.33	741.989
411.68	747.310
412.03	755.462
412.38	763.583
412.73	779.253
413.09	797.592
413.44	818.353
413.79	843.501
414.14	874.816
414.49	904.564
414.84	934.425
415.19	972.010
415.54	1010.689
415.89	1063.810
416.24	1113.734
416.59	1158.555
416.94	1213.807
417.29	1262.619
417.64	1309.325
417.99	1347.910
418.34	1385.362
418.69	1426.101
419.04	1470.871
419.39	1513.446
419.74	1540.380
420.09	1558.974
420.44	1577.380
420.79	1586.501
421.14	1596.734
421.49	1593.501
421.84	1596.698
422.19	1602.164
422.54	1589.243
422.89	1561.592
423.24	1527.016
423.59	1485.492
423.94	1441.789
424.29	1396.692
424.64	1344.589
424.99	1290.928
425.34	1245.289
425.68	1197.837
426.03	1149.070
426.38	1113.155
426.73	1078.698
427.08	1055.128
427.43	1041.743
427.78	1047.783
428.13	1051.771
428.48	1065.801
428.83	1080.589
429.18	1100.855
429.53	1121.380
429.87	1141.955
430.22	1172.625
430.57	1193.046
430.92	1210.534
431.27	1221.983
431.62	1232.453
431.97	1242.410
432.32	1241.552
432.67	1243.173
433.01	1233.543
433.36	1232.855
433.71	1228.471
434.06	1217.510
434.41	1221.689
434.76	1228.428
435.11	1234.707
435.45	1243.601
435.80	1256.253
436.15	1279.337
436.50	1304.898
436.85	1334.064
437.20	1357.243
437.54	1382.237
437.89	1405.862
438.24	1420.274
438.59	1430.525
438.94	1441.328
439.29	1442.553
439.63	1443.437
439.98	1437.480
440.33	1433.783
440.68	1431.207
441.03	1430.073
441.37	1439.125
441.72	1453.001
442.07	1474.407
442.42	1503.792
442.76	1531.071
443.11	1575.110
443.46	1611.025
443.81	1656.264
444.16	1687.361
444.50	1714.855
444.85	1738.707
445.20	1737.173
445.55	1732.552
445.89	1709.828
446.24	1675.925
446.59	1638.528
446.94	1581.380
447.28	1539.592
447.63	1487.407
447.98	1438.510
448.32	1390.580
448.67	1346.001
449.02	1318.752
449.37	1291.528
449.71	1280.762
450.06	1277.383
450.41	1280.762
450.75	1283.855
451.10	1282.625
451.45	1279.946
451.79	1281.934
452.14	1282.874
452.49	1285.925
452.84	1284.301
453.18	1285.589
453.53	1290.155
453.88	1294.798
454.22	1296.246
454.57	1317.516
454.92	1343.537
455.26	1382.661
455.61	1428.464
455.95	1485.207
456.30	1526.155
456.65	1579.671
456.99	1626.601
457.34	1673.080
457.69	1708.901
458.03	1745.607
458.38	1763.846
458.73	1758.834
459.07	1741.455
459.42	1706.071
459.76	1666.210
460.11	1627.643
460.46	1574.710
460.80	1526.716
461.15	1478.646
461.49	1435.071
461.84	1391.656
462.19	1355.571
462.53	1337.883
462.88	1328.134
463.22	1333.537
463.57	1337.071
463.91	1346.773
464.26	1356.125
464.61	1368.301
464.95	1377.834
465.30	1392.610
465.64	1407.689
465.99	1415.701
466.33	1418.407
466.68	1414.682
467.02	1412.062
467.37	1407.292
467.71	1408.889
468.06	1412.183
468.41	1410.625
468.75	1405.937
469.10	1398.180
469.44	1393.355
469.79	1392.071
470.13	1391.610
470.48	1395.098
470.82	1392.801
471.17	1395.652
471.51	1395.019
471.86	1397.389
472.20	1400.164
472.55	1404.334
472.89	1408.310
473.23	1414.116
473.58	1423.155
473.92	1436.789
474.27	1446.583
474.61	1459.834
474.96	1475.392
475.30	1492.171
475.65	1510.364
475.99	1530.553
476.34	1552.928
476.68	1580.971
477.02	1610.564
477.37	1643.953
477.71	1680.528
478.06	1735.543
478.40	1823.537
478.75	1957.680
479.09	2123.083
479.43	2313.534
479.78	2518.201
480.12	2724.807
480.47	2927.837
480.81	3126.116
481.15	3317.601
481.50	3501.844
481.84	3669.646
482.19	3802.653
482.53	3885.237
482.87	3934.480
483.22	3956.510
483.56	3961.253
483.90	3961.419
484.25	3961.444
484.59	3960.210
484.94	3916.043
485.28	3856.637
485.62	3797.144
485.97	3737.210
486.31	3677.289
486.65	3617.537
487.00	3553.080
487.34	3476.546
487.68	3391.716
488.03	3299.801
488.37	3204.471
488.71	3149.656
489.06	3106.225
489.40	3061.828
489.74	3013.380
490.09	2961.228
490.43	2894.007
490.77	2813.801
491.11	2727.616
491.46	2638.782
491.80	2550.507
492.14	2463.419
492.49	2376.625
492.83	2294.092
493.17	2214.825
493.51	2139.373
493.86	2070.825
494.20	2017.710
494.54	1981.353
494.88	1964.055
495.23	1955.998
495.57	1952.482
495.91	1948.580
496.25	1943.137
496.60	1933.134
496.94	1918.028
497.28	1900.489
497.62	1876.346
497.97	1850.925
498.31	1824.083
498.65	1794.698
498.99	1767.837
499.33	1742.762
499.68	1721.282
500.02	1702.598
500.36	1689.001
500.70	1678.334
501.04	1671.046
501.39	1667.825
501.73	1665.073
502.07	1666.852
502.41	1670.255
502.75	1673.607
503.09	1679.946
503.44	1687.180
503.78	1698.246
504.12	1709.907
504.46	1722.555
504.80	1736.707
505.14	1751.919
505.49	1767.298
505.83	1782.710
506.17	1798.698
506.51	1814.874
506.85	1828.380
507.19	1840.583
507.53	1849.525
507.87	1856.037
508.22	1859.607
508.56	1860.092
508.90	1856.607
509.24	1851.628
509.58	1844.416
509.92	1834.392
510.26	1823.298
510.60	1809.419
510.94	1794.180
511.28	1778.674
511.63	1763.607
511.97	1748.619
512.31	1736.925
512.65	1729.492
512.99	1727.789
513.33	1733.673
513.67	1747.207
514.01	1765.019
514.35	1791.052
514.69	1822.583
515.03	1859.080
515.37	1897.555
515.71	1939.252
516.05	1978.692
516.39	2015.743
516.73	2046.382
517.07	2066.834
517.41	2077.492
517.75	2079.052
518.09	2068.701
518.43	2048.107
518.77	2021.228
519.11	1989.425
519.45	1954.946
519.79	1921.843
520.13	1895.001
520.47	1875.061
520.81	1865.710
521.15	1863.898
521.49	1871.492
521.83	1890.862
522.17	1922.292
522.51	1963.780
522.85	2022.455
523.19	2108.979
523.53	2225.455
523.87	2363.607
524.21	2513.446
524.55	2665.334
524.89	2818.737
525.23	2972.734
525.57	3121.410
525.91	3266.771
526.25	3404.865
526.58	3529.980
526.92	3625.992
527.26	3682.816
527.60	3694.528
527.94	3671.944
528.28	3626.865
528.62	3567.598
528.96	3495.610
529.30	3418.371
529.64	3333.983
529.97	3244.807
530.31	3153.328
530.65	3062.525
530.99	2980.283
531.33	2918.625
531.67	2875.019
532.01	2841.644
532.35	2806.401
532.68	2765.807
533.02	2719.837
533.36	2669.307
533.70	2615.237
534.04	2558.944
534.38	2502.810
534.71	2444.462
535.05	2381.619
535.39	2320.416
535.73	2264.055
536.07	2230.534
536.41	2221.864
536.74	2233.525
537.08	2261.910
537.42	2304.380
537.76	2358.801
538.10	2421.716
538.43	2491.256
538.77	2565.444
539.11	2638.946
539.45	2710.934
539.79	2767.783
540.12	2806.207
540.46	2816.974
540.80	2803.698
541.14	2773.310
541.47	2725.534
541.81	2667.174
542.15	2599.489
542.49	2523.919
542.82	2440.398
543.16	2349.937
543.50	2259.752
543.84	2173.819
544.17	2102.416
544.51	2043.873
544.85	1991.871
545.18	1943.182
545.52	1893.607
545.86	1843.219
546.20	1791.707
546.53	1740.992
546.87	1693.434
547.21	1648.955
547.54	1606.643
547.88	1568.283
548.22	1534.298
548.55	1505.073
548.89	1483.125
549.23	1464.046
549.56	1450.016
549.90	1442.392
550.24	1441.271
550.57	1441.810
550.91	1442.116
551.25	1442.583
551.58	1439.334
551.92	1432.255
552.26	1422.134
552.59	1408.692
552.93	1395.325
553.27	1381.119
553.60	1365.234
553.94	1348.510
554.27	1331.053
554.61	1313.855
554.95	1295.580
555.28	1282.055
555.62	1270.407
555.95	1262.346
556.29	1256.707
556.63	1253.128
556.96	1251.571
557.30	1249.628
557.63	1248.998
557.97	1250.164
558.31	1250.907
558.64	1253.437
558.98	1253.816
559.31	1255.673
559.65	1256.225
559.98	1256.419
560.32	1257.616
560.65	1258.828
560.99	1264.480
561.33	1270.655
561.66	1279.180
562.00	1289.492
562.33	1299.680
562.67	1312.992
563.00	1325.443
563.34	1338.719
563.67	1351.980
564.01	1364.328
564.34	1376.225
564.68	1383.837
565.01	1389.271
565.35	1389.010
565.68	1386.652
566.02	1382.437
566.35	1376.216
566.69	1371.901
567.02	1368.743
567.36	1367.846
567.69	1367.525
568.03	1367.792
568.36	1369.325
568.69	1372.292
569.03	1380.107
569.36	1388.419
569.70	1399.571
570.03	1412.346
570.37	1424.234
570.70	1431.765
571.04	1435.734
571.37	1437.310
571.70	1434.516
572.04	1430.864
572.37	1425.253
572.71	1415.928
573.04	1406.134
573.37	1393.519
573.71	1376.416
574.04	1357.974
574.38	1338.453
574.71	1317.655
575.04	1295.898
575.38	1276.455
575.71	1256.089
576.05	1236.255
576.38	1216.262
576.71	1196.292
577.05	1176.962
577.38	1158.810
577.71	1142.316
578.05	1128.346
578.38	1115.998
578.71	1105.564
579.05	1096.262
579.38	1088.564
579.71	1081.216
580.05	1076.164
580.38	1071.416
580.71	1066.810
581.05	1062.480
581.38	1058.328
581.71	1054.489
582.05	1051.410
582.38	1048.280
582.71	1045.655
583.04	1042.398
583.38	1039.819
583.71	1037.907
584.04	1037.983
584.38	1037.498
584.71	1039.019
585.04	1040.780
585.37	1042.755
585.71	1045.007
586.04	1048.128
586.37	1051.098
586.70	1054.274
587.04	1057.843
587.37	1059.364
587.70	1059.216
588.03	1059.219
588.37	1057.898
588.70	1055.301
589.03	1053.743
589.36	1050.874
589.69	1047.798
590.03	1043.728
590.36	1039.562
590.69	1035.664
591.02	1034.025
591.35	1034.274
591.69	1038.898
592.02	1046.692
592.35	1056.953
592.68	1068.073
593.01	1081.507
593.35	1094.492
593.68	1107.762
594.01	1121.346
594.34	1132.816
594.67	1143.355
595.00	1151.725
595.34	1153.655
595.67	1151.798
596.00	1145.073
596.33	1131.971
596.66	1115.182
596.99	1096.180
597.32	1076.464
597.65	1056.998
597.99	1038.337
598.32	1021.962
598.65	1008.137
598.98	999.562
599.31	994.892
599.64	996.425
599.97	1005.146
600.30	1018.907
600.63	1037.146
600.96	1056.889
601.30	1077.010
601.63	1098.353
601.96	1116.010
602.29	1130.316
602.62	1139.392
602.95	1144.625
603.28	1143.528
603.61	1138.143
