OOIBase32 Version 2.0.0.6 Data File
++++++++++++++++++++++++++++++++++++
Date: 01-19-2012, 15:25:29
User: Valued Ocean Optics Customer
Spectrometer Serial Number: USB2E2917
Spectrometer Channel: Master
Integration Time (msec): 5
Spectra Averaged: 10
Boxcar Smoothing: 5
Correct for Electrical Dark: Enabled
Time Normalized: Disabled
Dual-beam Reference: Disabled
Reference Channel: Master
Temperature: Not acquired
Spectrometer Type: S2000
ADC Type: USB2000
Number of Pixels in File: 2048
Graph Title: 
>>>>>Begin Spectral Data<<<<<
180.30	0.000
180.67	0.000
181.03	13627.468
181.40	281.011
181.77	-13.267
182.14	-14.145
182.51	-325.868
182.88	155.682
183.25	131.346
183.62	-192.337
183.99	-140.349
184.36	133.419
184.73	-509.287
185.10	-19.019
185.46	209.168
185.83	-28.837
186.20	-661.570
186.57	-54.343
186.94	765.045
187.31	-12.615
187.68	50.510
188.05	-36.154
188.42	-19.548
188.78	24.194
189.15	17.261
189.52	19.444
189.89	-0.827
190.26	26.354
190.63	32.289
191.00	31.325
191.37	4.334
191.73	2.145
192.10	-6.526
192.47	-13.612
192.84	-31.801
193.21	-53.863
193.58	-47.398
193.94	-55.974
194.31	-79.622
194.68	-66.550
195.05	-82.711
195.42	-56.680
195.79	-34.705
196.15	0.030
196.52	8.543
196.89	11.569
197.26	8.051
197.63	16.871
198.00	9.710
198.36	20.779
198.73	35.823
199.10	42.805
199.47	33.128
199.84	26.364
200.20	18.572
200.57	22.229
200.94	28.843
201.31	31.932
201.68	27.004
202.04	47.165
202.41	58.056
202.78	48.286
203.15	43.851
203.51	51.651
203.88	51.391
204.25	63.113
204.62	57.668
204.98	34.250
205.35	24.798
205.72	31.016
206.09	-2.246
206.46	-2.465
206.82	-14.478
207.19	-3.938
207.56	-14.281
207.92	-13.503
208.29	-31.887
208.66	-48.108
209.03	-62.454
209.39	-42.235
209.76	-58.027
210.13	-44.863
210.50	-51.095
210.86	-48.108
211.23	-39.004
211.60	-38.582
211.96	-29.822
212.33	-9.014
212.70	-27.668
213.07	-12.149
213.43	-24.078
213.80	-28.526
214.17	-36.856
214.53	-28.623
214.90	-24.451
215.27	-41.500
215.63	-35.500
216.00	-28.157
216.37	-58.287
216.74	-21.675
217.10	-14.507
217.47	0.819
217.84	16.164
218.20	18.078
218.57	7.846
218.94	2.003
219.30	2.929
219.67	2.584
220.04	-1.718
220.40	6.397
220.77	5.345
221.13	4.072
221.50	0.485
221.87	-2.899
222.23	-2.951
222.60	-1.622
222.97	0.414
223.33	2.689
223.70	0.309
224.07	2.156
224.43	-0.490
224.80	0.727
225.16	0.797
225.53	4.045
225.90	4.212
226.26	3.980
226.63	4.206
226.99	3.407
227.36	2.622
227.73	3.479
228.09	4.220
228.46	3.822
228.82	3.402
229.19	3.696
229.56	2.565
229.92	2.482
230.29	3.271
230.65	2.251
231.02	3.633
231.38	4.185
231.75	2.881
232.12	1.489
232.48	2.312
232.85	3.195
233.21	3.015
233.58	3.666
233.94	2.722
234.31	2.090
234.68	2.233
235.04	2.685
235.41	3.328
235.77	4.702
236.14	4.213
236.50	3.557
236.87	2.955
237.23	2.666
237.60	2.301
237.96	2.887
238.33	3.919
238.69	4.676
239.06	4.243
239.42	3.763
239.79	3.205
240.15	4.033
240.52	3.809
240.88	4.106
241.25	4.477
241.61	4.277
241.98	4.643
242.34	3.996
242.71	3.406
243.07	3.124
243.44	3.353
243.80	3.604
244.17	3.192
244.53	3.467
244.90	3.230
245.26	2.959
245.63	3.157
245.99	2.830
246.36	2.834
246.72	3.020
247.09	3.431
247.45	3.260
247.81	3.336
248.18	3.613
248.54	3.697
248.91	4.151
249.27	4.188
249.64	4.161
250.00	4.363
250.36	5.011
250.73	5.211
251.09	4.640
251.46	4.856
251.82	4.355
252.19	3.959
252.55	3.459
252.91	3.337
253.28	3.193
253.64	2.947
254.01	2.790
254.37	2.040
254.73	1.964
255.10	2.254
255.46	2.202
255.83	2.669
256.19	2.710
256.55	3.182
256.92	3.162
257.28	3.290
257.65	3.274
258.01	3.145
258.37	3.054
258.74	3.049
259.10	3.033
259.46	3.006
259.83	2.797
260.19	3.007
260.55	2.861
260.92	2.803
261.28	2.722
261.64	2.716
262.01	2.629
262.37	2.960
262.73	2.884
263.10	2.994
263.46	2.765
263.82	2.949
264.19	2.565
264.55	2.915
264.91	2.822
265.28	3.032
265.64	2.903
266.00	3.383
266.37	3.344
266.73	3.438
267.09	3.257
267.46	3.653
267.82	3.487
268.18	3.331
268.54	3.087
268.91	3.022
269.27	2.908
269.63	3.001
270.00	2.838
270.36	2.787
270.72	2.821
271.08	2.993
271.45	2.840
271.81	2.688
272.17	3.096
272.53	3.043
272.90	3.108
273.26	3.111
273.62	3.212
273.98	3.192
274.35	3.202
274.71	3.005
275.07	2.740
275.43	2.820
275.80	3.312
276.16	2.936
276.52	3.086
276.88	3.056
277.25	3.001
277.61	2.974
277.97	2.953
278.33	2.729
278.69	2.801
279.06	2.840
279.42	2.585
279.78	2.426
280.14	2.613
280.50	2.602
280.87	2.875
281.23	2.819
281.59	2.801
281.95	2.824
282.31	2.863
282.68	2.965
283.04	3.050
283.40	3.299
283.76	3.206
284.12	3.215
284.48	3.079
284.85	2.851
285.21	3.056
285.57	2.966
285.93	2.957
286.29	3.011
286.65	2.941
287.02	2.910
287.38	2.725
287.74	2.849
288.10	2.799
288.46	2.900
288.82	2.849
289.18	2.501
289.54	2.528
289.91	2.554
290.27	2.520
290.63	2.427
290.99	2.605
291.35	2.829
291.71	2.782
292.07	2.773
292.43	2.941
292.79	2.997
293.16	3.147
293.52	3.203
293.88	2.972
294.24	2.990
294.60	3.111
294.96	3.006
295.32	2.987
295.68	2.894
296.04	2.948
296.40	2.864
296.76	2.972
297.12	2.943
297.49	2.909
297.85	3.043
298.21	3.158
298.57	3.064
298.93	3.179
299.29	3.110
299.65	3.172
300.01	3.128
300.37	2.994
300.73	2.887
301.09	2.874
301.45	2.929
301.81	2.916
302.17	2.713
302.53	2.753
302.89	2.841
303.25	2.821
303.61	2.875
303.97	3.008
304.33	3.060
304.69	3.024
305.05	3.275
305.41	3.240
305.77	3.105
306.13	3.046
306.49	3.046
306.85	2.604
307.21	2.563
307.57	2.426
307.93	2.235
308.29	2.199
308.65	2.085
309.01	1.788
309.37	1.689
309.73	1.659
310.09	1.675
310.45	1.536
310.81	1.619
311.17	1.606
311.53	1.473
311.89	1.439
312.25	1.156
312.61	1.164
312.96	1.160
313.32	1.141
313.68	1.086
314.04	1.031
314.40	0.929
314.76	0.915
315.12	0.773
315.48	0.783
315.84	0.660
316.20	0.693
316.56	0.624
316.92	0.488
317.27	0.286
317.63	0.282
317.99	0.207
318.35	0.195
318.71	0.198
319.07	0.193
319.43	0.169
319.79	0.139
320.15	0.241
320.50	0.222
320.86	0.205
321.22	0.247
321.58	0.110
321.94	0.111
322.30	0.131
322.66	-0.068
323.01	-0.222
323.37	-0.356
323.73	-0.421
324.09	-0.622
324.45	-0.757
324.81	-0.690
325.17	-0.744
325.52	-0.810
325.88	-0.953
326.24	-1.210
326.60	-1.127
326.96	-1.241
327.31	-1.292
327.67	-1.302
328.03	-1.299
328.39	-1.285
328.75	-1.380
329.11	-1.419
329.46	-1.373
329.82	-1.258
330.18	-0.980
330.54	-0.909
330.90	-0.598
331.25	-0.513
331.61	-0.398
331.97	-0.211
332.33	-0.109
332.68	0.051
333.04	0.143
333.40	0.307
333.76	0.391
334.11	0.526
334.47	0.424
334.83	0.476
335.19	0.600
335.54	0.452
335.90	0.405
336.26	0.330
336.62	0.313
336.97	0.314
337.33	0.287
337.69	0.181
338.05	-0.034
338.40	-0.096
338.76	-0.240
339.12	-0.272
339.48	-0.124
339.83	-0.013
340.19	0.069
340.55	0.084
340.90	0.077
341.26	0.121
341.62	0.165
341.97	0.301
342.33	0.468
342.69	0.491
343.04	0.539
343.40	0.447
343.76	0.369
344.12	0.380
344.47	0.420
344.83	0.448
345.19	0.436
345.54	0.428
345.90	0.397
346.26	0.335
346.61	0.332
346.97	0.309
347.32	0.385
347.68	0.314
348.04	0.296
348.39	0.174
348.75	0.121
349.11	0.092
349.46	0.124
349.82	0.023
350.18	0.055
350.53	0.026
350.89	-0.043
351.24	-0.122
351.60	0.010
351.96	-0.033
352.31	0.053
352.67	0.123
353.02	0.127
353.38	0.191
353.74	0.317
354.09	0.360
354.45	0.512
354.80	0.684
355.16	0.867
355.52	0.963
355.87	1.153
356.23	1.215
356.58	1.343
356.94	1.387
357.29	1.412
357.65	1.466
358.00	1.461
358.36	1.456
358.72	1.395
359.07	1.457
359.43	1.446
359.78	1.410
360.14	1.441
360.49	1.438
360.85	1.386
361.20	1.437
361.56	1.381
361.91	1.346
362.27	1.285
362.62	1.316
362.98	1.231
363.33	1.172
363.69	1.026
364.04	0.889
364.40	0.835
364.75	0.883
365.11	0.726
365.46	0.726
365.82	0.746
366.17	0.773
366.53	0.785
366.88	0.772
367.24	0.745
367.59	0.971
367.95	1.057
368.30	1.090
368.66	1.163
369.01	1.326
369.37	1.434
369.72	1.542
370.08	1.616
370.43	1.612
370.78	1.727
371.14	1.818
371.49	1.806
371.85	1.916
372.20	1.968
372.56	2.054
372.91	2.024
373.26	2.015
373.62	1.995
373.97	1.921
374.33	1.942
374.68	1.857
375.03	1.874
375.39	1.757
375.74	1.709
376.10	1.672
376.45	1.594
376.80	1.674
377.16	1.728
377.51	1.819
377.87	1.964
378.22	2.108
378.57	2.276
378.93	2.437
379.28	2.691
379.63	2.898
379.99	3.105
380.34	3.331
380.70	3.497
381.05	3.643
381.40	3.689
381.76	3.742
382.11	3.801
382.46	3.854
382.82	3.856
383.17	3.850
383.52	3.791
383.88	3.787
384.23	3.752
384.58	3.743
384.94	3.741
385.29	3.812
385.64	3.890
385.99	3.913
386.35	3.962
386.70	3.917
387.05	3.877
387.41	3.898
387.76	3.894
388.11	3.909
388.47	3.915
388.82	3.923
389.17	3.962
389.52	3.980
389.88	4.024
390.23	4.088
390.58	4.224
390.93	4.373
391.29	4.472
391.64	4.536
391.99	4.629
392.34	4.661
392.70	4.664
393.05	4.692
393.40	4.714
393.75	4.703
394.11	4.621
394.46	4.600
394.81	4.523
395.16	4.425
395.52	4.322
395.87	4.122
396.22	3.937
396.57	3.817
396.92	3.570
397.28	3.404
397.63	3.208
397.98	3.032
398.33	2.852
398.68	2.717
399.04	2.622
399.39	2.538
399.74	2.543
400.09	2.613
400.44	2.607
400.80	2.678
401.15	2.715
401.50	2.825
401.85	2.949
402.20	3.013
402.55	3.103
402.90	3.157
403.26	3.252
403.61	3.250
403.96	3.276
404.31	3.288
404.66	3.315
405.01	3.336
405.36	3.301
405.72	3.247
406.07	3.212
406.42	3.136
406.77	3.093
407.12	3.037
407.47	3.036
407.82	2.982
408.17	2.968
408.53	2.948
408.88	2.887
409.23	2.853
409.58	2.792
409.93	2.781
410.28	2.780
410.63	2.784
410.98	2.750
411.33	2.758
411.68	2.784
412.03	2.821
412.38	2.873
412.73	3.000
413.09	3.168
413.44	3.397
413.79	3.592
414.14	3.798
414.49	4.015
414.84	4.230
415.19	4.426
415.54	4.611
415.89	4.845
416.24	5.054
416.59	5.228
416.94	5.378
417.29	5.487
417.64	5.593
417.99	5.696
418.34	5.782
418.69	5.875
419.04	5.969
419.39	6.051
419.74	6.090
420.09	6.134
420.44	6.166
420.79	6.162
421.14	6.171
421.49	6.180
421.84	6.155
422.19	6.146
422.54	6.123
422.89	6.075
423.24	6.012
423.59	5.947
423.94	5.852
424.29	5.740
424.64	5.693
424.99	5.599
425.34	5.512
425.68	5.452
426.03	5.311
426.38	5.220
426.73	5.173
427.08	5.131
427.43	5.121
427.78	5.161
428.13	5.222
428.48	5.244
428.83	5.284
429.18	5.331
429.53	5.371
429.87	5.469
430.22	5.497
430.57	5.503
430.92	5.516
431.27	5.519
431.62	5.504
431.97	5.449
432.32	5.385
432.67	5.352
433.01	5.297
433.36	5.243
433.71	5.174
434.06	5.123
434.41	5.112
434.76	5.100
435.11	5.128
435.45	5.142
435.80	5.219
436.15	5.327
436.50	5.399
436.85	5.480
437.20	5.555
437.54	5.606
437.89	5.652
438.24	5.657
438.59	5.673
438.94	5.634
439.29	5.589
439.63	5.524
439.98	5.454
440.33	5.415
440.68	5.393
441.03	5.381
441.37	5.407
441.72	5.474
442.07	5.529
442.42	5.587
442.76	5.691
443.11	5.820
443.46	5.945
443.81	6.025
444.16	6.077
444.50	6.102
444.85	6.112
445.20	6.093
445.55	6.016
445.89	5.954
446.24	5.872
446.59	5.743
446.94	5.596
447.28	5.424
447.63	5.266
447.98	5.123
448.32	4.979
448.67	4.839
449.02	4.700
449.37	4.631
449.71	4.615
450.06	4.596
450.41	4.638
450.75	4.659
451.10	4.691
451.45	4.712
451.79	4.732
452.14	4.734
452.49	4.739
452.84	4.778
453.18	4.792
453.53	4.782
453.88	4.793
454.22	4.800
454.57	4.870
454.92	4.972
455.26	5.100
455.61	5.243
455.95	5.399
456.30	5.529
456.65	5.668
456.99	5.798
457.34	5.918
457.69	6.037
458.03	6.096
458.38	6.127
458.73	6.124
459.07	6.083
459.42	6.005
459.76	5.916
460.11	5.827
460.46	5.710
460.80	5.571
461.15	5.433
461.49	5.285
461.84	5.185
462.19	5.102
462.53	5.038
462.88	5.016
463.22	5.026
463.57	5.054
463.91	5.114
464.26	5.172
464.61	5.228
464.95	5.288
465.30	5.344
465.64	5.370
465.99	5.385
466.33	5.398
466.68	5.395
467.02	5.377
467.37	5.354
467.71	5.310
468.06	5.294
468.41	5.280
468.75	5.228
469.10	5.142
469.44	5.086
469.79	5.014
470.13	4.952
470.48	4.889
470.82	4.840
471.17	4.793
471.51	4.737
471.86	4.681
472.20	4.629
472.55	4.572
472.89	4.561
473.23	4.527
473.58	4.492
473.92	4.482
474.27	4.472
474.61	4.492
474.96	4.498
475.30	4.529
475.65	4.509
475.99	4.519
476.34	4.580
476.68	4.619
477.02	4.670
477.37	4.762
477.71	4.867
478.06	5.019
478.40	5.260
478.75	5.659
479.09	6.112
479.43	6.596
479.78	7.063
480.12	7.508
480.47	7.941
480.81	8.340
481.15	8.706
481.50	9.050
481.84	9.404
482.19	9.747
482.53	10.023
482.87	10.211
483.22	10.281
483.56	10.236
483.90	10.085
484.25	9.867
484.59	9.622
484.94	9.355
485.28	9.135
485.62	8.879
485.97	8.585
486.31	8.300
486.65	8.066
487.00	7.910
487.34	7.839
487.68	7.825
488.03	7.838
488.37	7.859
488.71	7.908
489.06	7.879
489.40	7.844
489.74	7.790
490.09	7.722
490.43	7.629
490.77	7.530
491.11	7.394
491.46	7.243
491.80	7.099
492.14	6.968
492.49	6.784
492.83	6.610
493.17	6.422
493.51	6.260
493.86	6.118
494.20	5.993
494.54	5.922
494.88	5.946
495.23	5.966
495.57	6.003
495.91	6.020
496.25	6.056
496.60	6.105
496.94	6.124
497.28	6.126
497.62	6.112
497.97	6.113
498.31	6.095
498.65	6.051
498.99	6.043
499.33	6.023
499.68	6.014
500.02	6.026
500.36	5.996
500.70	6.021
501.04	6.034
501.39	6.061
501.73	6.079
502.07	6.117
502.41	6.168
502.75	6.222
503.09	6.307
503.44	6.404
503.78	6.467
504.12	6.565
504.46	6.645
504.80	6.750
505.14	6.866
505.49	6.997
505.83	7.076
506.17	7.160
506.51	7.248
506.85	7.323
507.19	7.392
507.53	7.477
507.87	7.532
508.22	7.568
508.56	7.597
508.90	7.608
509.24	7.608
509.58	7.655
509.92	7.660
510.26	7.657
510.60	7.663
510.94	7.653
511.28	7.648
511.63	7.653
511.97	7.694
512.31	7.723
512.65	7.784
512.99	7.864
513.33	7.962
513.67	8.101
514.01	8.273
514.35	8.453
514.69	8.666
515.03	8.864
515.37	9.063
515.71	9.226
516.05	9.393
516.39	9.515
516.73	9.616
517.07	9.682
517.41	9.711
517.75	9.673
518.09	9.611
518.43	9.497
518.77	9.351
519.11	9.203
519.45	9.044
519.79	8.893
520.13	8.783
520.47	8.679
520.81	8.647
521.15	8.644
521.49	8.710
521.83	8.818
522.17	8.998
522.51	9.212
522.85	9.463
523.19	9.816
523.53	10.267
523.87	10.757
524.21	11.252
524.55	11.679
524.89	12.062
525.23	12.422
525.57	12.734
525.91	13.000
526.25	13.236
526.58	13.462
526.92	13.629
527.26	13.736
527.60	13.754
527.94	13.717
528.28	13.651
528.62	13.553
528.96	13.452
529.30	13.331
529.64	13.192
529.97	13.059
530.31	12.885
530.65	12.722
530.99	12.570
531.33	12.471
531.67	12.413
532.01	12.389
532.35	12.360
532.68	12.299
533.02	12.225
533.36	12.149
533.70	12.067
534.04	11.973
534.38	11.875
534.71	11.735
535.05	11.597
535.39	11.451
535.73	11.331
536.07	11.290
536.41	11.332
536.74	11.452
537.08	11.627
537.42	11.823
537.76	12.056
538.10	12.290
538.43	12.548
538.77	12.817
539.11	13.032
539.45	13.233
539.79	13.410
540.12	13.496
540.46	13.532
540.80	13.510
541.14	13.468
541.47	13.383
541.81	13.285
542.15	13.154
542.49	12.962
542.82	12.799
543.16	12.577
543.50	12.315
543.84	12.110
544.17	11.945
544.51	11.811
544.85	11.677
545.18	11.570
545.52	11.435
545.86	11.287
546.20	11.131
546.53	10.955
546.87	10.798
547.21	10.654
547.54	10.517
547.88	10.343
548.22	10.192
548.55	10.089
548.89	10.006
549.23	9.942
549.56	9.923
549.90	9.967
550.24	10.031
550.57	10.078
550.91	10.152
551.25	10.185
551.58	10.225
551.92	10.256
552.26	10.241
552.59	10.198
552.93	10.151
553.27	10.093
553.60	10.043
553.94	9.966
554.27	9.951
554.61	9.921
554.95	9.898
555.28	9.885
555.62	9.890
555.95	9.921
556.29	9.977
556.63	10.059
556.96	10.123
557.30	10.174
557.63	10.245
557.97	10.272
558.31	10.295
558.64	10.334
558.98	10.369
559.31	10.400
559.65	10.451
559.98	10.462
560.32	10.496
560.65	10.554
560.99	10.634
561.33	10.698
561.66	10.791
562.00	10.907
562.33	11.012
562.67	11.138
563.00	11.264
563.34	11.388
563.67	11.544
564.01	11.639
564.34	11.745
564.68	11.832
565.01	11.899
565.35	11.937
565.68	11.951
566.02	11.980
566.35	11.997
566.69	12.017
567.02	12.011
567.36	12.030
567.69	12.097
568.03	12.120
568.36	12.145
568.69	12.208
569.03	12.281
569.36	12.352
569.70	12.444
570.03	12.509
570.37	12.584
570.70	12.650
571.04	12.684
571.37	12.673
571.70	12.714
572.04	12.725
572.37	12.701
572.71	12.683
573.04	12.681
573.37	12.639
573.71	12.621
574.04	12.560
574.38	12.506
574.71	12.441
575.04	12.386
575.38	12.313
575.71	12.235
576.05	12.191
576.38	12.109
576.71	12.040
577.05	11.938
577.38	11.821
577.71	11.745
578.05	11.669
578.38	11.565
578.71	11.492
579.05	11.413
579.38	11.376
579.71	11.333
580.05	11.325
580.38	11.281
580.71	11.250
581.05	11.235
581.38	11.234
581.71	11.250
582.05	11.299
582.38	11.338
582.71	11.333
583.04	11.364
583.38	11.368
583.71	11.386
584.04	11.457
584.38	11.532
584.71	11.625
585.04	11.717
585.37	11.781
585.71	11.878
586.04	11.954
586.37	12.079
586.70	12.154
587.04	12.293
587.37	12.347
587.70	12.355
588.03	12.401
588.37	12.388
588.70	12.386
589.03	12.369
589.36	12.293
589.69	12.298
590.03	12.263
590.36	12.237
590.69	12.146
591.02	12.140
591.35	12.144
591.69	12.148
592.02	12.241
592.35	12.255
592.68	12.319
593.01	12.430
593.35	12.496
593.68	12.596
594.01	12.655
594.34	12.707
594.67	12.727
595.00	12.763
595.34	12.794
595.67	12.743
596.00	12.717
596.33	12.622
596.66	12.517
596.99	12.360
597.32	12.232
597.65	12.114
597.99	12.002
598.32	11.937
598.65	11.841
598.98	11.725
599.31	11.703
599.64	11.729
599.97	11.821
600.30	11.894
600.63	12.036
600.96	12.107
601.30	12.185
601.63	12.306
601.96	12.368
602.29	12.439
602.62	12.492
602.95	12.517
603.28	12.509
603.61	12.466
603.94	12.434
604.27	12.352
604.60	12.286
604.93	12.219
605.26	12.141
605.59	12.056
605.92	11.965
606.25	11.872
606.58	11.833
606.91	11.793
607.24	11.803
607.57	11.800
607.90	11.795
608.23	11.801
608.56	11.771
608.89	11.707
609.22	11.613
609.55	11.544
609.88	11.509
610.21	11.370
610.54	11.244
610.87	11.075
611.20	10.907
611.53	10.760
611.86	10.606
612.19	10.499
612.52	10.382
612.85	10.364
613.18	10.326
613.51	10.239
613.84	10.216
614.17	10.144
614.49	10.131
614.82	10.064
615.15	10.055
615.48	10.006
615.81	9.948
616.14	9.914
616.47	9.899
616.80	9.875
617.13	9.833
617.46	9.773
617.78	9.778
618.11	9.711
618.44	9.717
618.77	9.682
619.10	9.660
619.43	9.631
619.76	9.607
620.09	9.563
620.41	9.510
620.74	9.525
621.07	9.506
621.40	9.505
621.73	9.543
622.06	9.590
622.38	9.585
622.71	9.594
623.04	9.646
623.37	9.739
623.70	9.763
624.02	9.790
624.35	9.848
624.68	9.931
625.01	9.971
625.34	9.983
625.66	9.978
625.99	9.963
626.32	9.979
626.65	9.936
626.98	9.855
627.30	9.815
627.63	9.735
627.96	9.622
628.29	9.523
628.61	9.380
628.94	9.269
629.27	9.183
629.60	9.123
629.92	9.026
630.25	8.985
630.58	8.908
630.91	8.863
631.23	8.837
631.56	8.786
631.89	8.736
632.21	8.750
632.54	8.707
632.87	8.674
633.19	8.626
633.52	8.587
633.85	8.510
634.18	8.430
634.50	8.349
634.83	8.272
635.16	8.228
635.48	8.170
635.81	8.062
636.14	8.016
636.46	7.888
636.79	7.812
637.11	7.720
637.44	7.646
637.77	7.599
638.09	7.570
638.42	7.486
638.75	7.429
639.07	7.352
639.40	7.279
639.73	7.201
640.05	7.184
640.38	7.132
640.70	7.101
641.03	7.057
641.36	7.022
641.68	6.936
642.01	6.909
642.33	6.859
642.66	6.815
642.98	6.862
643.31	6.891
643.64	6.880
643.96	6.908
644.29	6.953
644.61	6.995
644.94	7.063
645.26	7.187
645.59	7.280
645.91	7.321
646.24	7.402
646.56	7.373
646.89	7.367
647.22	7.351
647.54	7.378
647.87	7.367
648.19	7.336
648.52	7.270
648.84	7.164
649.17	7.100
649.49	7.033
649.82	6.954
650.14	6.966
650.47	6.949
650.79	6.974
651.11	6.942
651.44	6.900
651.76	6.900
652.09	6.860
652.41	6.799
