OOIBase32 Version 2.0.0.6 Data File
++++++++++++++++++++++++++++++++++++
Date: 01-19-2012, 14:28:39
User: Valued Ocean Optics Customer
Spectrometer Serial Number: USB2E2917
Spectrometer Channel: Master
Integration Time (msec): 5
Spectra Averaged: 10
Boxcar Smoothing: 5
Correct for Electrical Dark: Enabled
Time Normalized: Disabled
Dual-beam Reference: Disabled
Reference Channel: Master
Temperature: Not acquired
Spectrometer Type: S2000
ADC Type: USB2000
Number of Pixels in File: 2048
Graph Title: 
>>>>>Begin Spectral Data<<<<<
180.30	0.000
180.67	0.000
181.03	-2356.881
181.40	-241.097
181.77	223.619
182.14	-1400.111
182.51	-288.180
182.88	84.570
183.25	-188.433
183.62	90.497
183.99	82.549
184.36	301.279
184.73	146.254
185.10	69.478
185.46	155.943
185.83	80.545
186.20	168.792
186.57	157.510
186.94	31.320
187.31	188.357
187.68	115.299
188.05	-29.335
188.42	-402.974
188.78	223.927
189.15	75.033
189.52	79.738
189.89	61.107
190.26	73.610
190.63	32.122
191.00	61.752
191.37	70.299
191.73	73.480
192.10	60.961
192.47	62.679
192.84	69.910
193.21	81.135
193.58	71.167
193.94	60.920
194.31	49.902
194.68	53.887
195.05	17.877
195.42	22.932
195.79	11.331
196.15	7.209
196.52	8.059
196.89	31.806
197.26	31.755
197.63	41.726
198.00	38.655
198.36	40.678
198.73	40.080
199.10	51.146
199.47	50.547
199.84	59.243
200.20	53.682
200.57	36.332
200.94	25.010
201.31	28.508
201.68	16.147
202.04	16.037
202.41	12.619
202.78	21.323
203.15	25.247
203.51	27.897
203.88	26.210
204.25	31.654
204.62	30.352
204.98	37.249
205.35	14.560
205.72	31.839
206.09	22.858
206.46	30.555
206.82	30.298
207.19	29.819
207.56	18.786
207.92	21.490
208.29	12.638
208.66	26.813
209.03	12.392
209.39	24.862
209.76	22.858
210.13	37.880
210.50	30.761
210.86	15.638
211.23	25.438
211.60	32.822
211.96	25.438
212.33	36.573
212.70	33.544
213.07	39.643
213.43	31.943
213.80	35.277
214.17	33.320
214.53	48.593
214.90	49.935
215.27	34.319
215.63	36.185
216.00	40.779
216.37	35.603
216.74	33.349
217.10	27.465
217.47	41.227
217.84	40.167
218.20	40.017
218.57	20.430
218.94	20.453
219.30	13.079
219.67	11.848
220.04	-0.763
220.40	2.792
220.77	9.691
221.13	19.930
221.50	18.006
221.87	16.551
222.23	8.021
222.60	13.471
222.97	15.047
223.33	22.562
223.70	20.797
224.07	26.856
224.43	25.726
224.80	20.061
225.16	15.364
225.53	12.586
225.90	11.981
226.26	13.292
226.63	12.455
226.99	11.138
227.36	10.036
227.73	9.435
228.09	6.970
228.46	5.432
228.82	5.886
229.19	6.736
229.56	6.556
229.92	6.935
230.29	8.014
230.65	8.261
231.02	10.252
231.38	11.131
231.75	11.952
232.12	12.056
232.48	12.530
232.85	10.869
233.21	8.123
233.58	10.589
233.94	9.356
234.31	6.849
234.68	6.818
235.04	8.025
235.41	6.854
235.77	6.332
236.14	7.050
236.50	8.397
236.87	10.327
237.23	12.209
237.60	10.635
237.96	10.628
238.33	11.133
238.69	9.337
239.06	7.196
239.42	7.402
239.79	6.577
240.15	6.805
240.52	6.071
240.88	5.319
241.25	4.909
241.61	5.494
241.98	5.330
242.34	5.116
242.71	5.611
243.07	5.724
243.44	5.912
243.80	6.520
244.17	6.049
244.53	5.845
244.90	5.852
245.26	5.855
245.63	5.516
245.99	5.685
246.36	5.646
246.72	5.538
247.09	5.562
247.45	5.278
247.81	5.179
248.18	5.392
248.54	5.490
248.91	5.679
249.27	5.132
249.64	5.534
250.00	4.809
250.36	5.117
250.73	5.110
251.09	5.360
251.46	5.875
251.82	5.353
252.19	5.113
252.55	4.691
252.91	4.299
253.28	4.759
253.64	4.447
254.01	5.056
254.37	5.435
254.73	5.565
255.10	5.916
255.46	5.485
255.83	6.061
256.19	6.290
256.55	6.443
256.92	6.111
257.28	6.173
257.65	5.935
258.01	5.694
258.37	5.673
258.74	5.639
259.10	5.469
259.46	5.342
259.83	5.111
260.19	5.271
260.55	5.281
260.92	5.551
261.28	5.731
261.64	5.623
262.01	5.815
262.37	5.662
262.73	5.686
263.10	5.427
263.46	5.952
263.82	5.886
264.19	5.781
264.55	5.520
264.91	5.417
265.28	4.945
265.64	5.316
266.00	4.924
266.37	4.745
266.73	4.643
267.09	4.698
267.46	4.560
267.82	4.585
268.18	4.046
268.54	4.407
268.91	4.265
269.27	4.239
269.63	3.869
270.00	4.246
270.36	4.240
270.72	4.522
271.08	4.714
271.45	4.809
271.81	4.883
272.17	5.023
272.53	4.539
272.90	4.529
273.26	4.486
273.62	5.074
273.98	5.082
274.35	5.210
274.71	4.810
275.07	4.703
275.43	4.346
275.80	4.276
276.16	4.372
276.52	4.761
276.88	4.889
277.25	4.941
277.61	4.422
277.97	4.405
278.33	4.401
278.69	4.873
279.06	4.433
279.42	4.536
279.78	4.558
280.14	4.591
280.50	4.441
280.87	4.414
281.23	4.474
281.59	4.621
281.95	4.287
282.31	4.290
282.68	4.125
283.04	4.560
283.40	4.741
283.76	4.628
284.12	4.380
284.48	4.284
284.85	4.307
285.21	4.220
285.57	4.015
285.93	4.031
286.29	4.208
286.65	4.398
287.02	4.298
287.38	4.109
287.74	4.263
288.10	4.513
288.46	4.618
288.82	4.668
289.18	4.739
289.54	5.004
289.91	4.985
290.27	4.809
290.63	4.522
290.99	4.411
291.35	4.370
291.71	4.509
292.07	4.368
292.43	4.777
292.79	4.509
293.16	4.391
293.52	4.140
293.88	4.571
294.24	4.540
294.60	4.553
294.96	4.662
295.32	4.516
295.68	4.390
296.04	4.540
296.40	4.196
296.76	4.364
297.12	4.335
297.49	4.384
297.85	4.105
298.21	3.951
298.57	3.960
298.93	4.066
299.29	4.187
299.65	4.035
300.01	4.057
300.37	4.218
300.73	4.253
301.09	4.309
301.45	4.627
301.81	4.748
302.17	4.849
302.53	4.914
302.89	4.777
303.25	4.843
303.61	4.882
303.97	4.770
304.33	4.721
304.69	4.750
305.05	4.790
305.41	4.544
305.77	4.513
306.13	4.670
306.49	4.452
306.85	4.401
307.21	4.307
307.57	4.142
307.93	4.104
308.29	4.184
308.65	4.059
309.01	4.050
309.37	4.011
309.73	4.092
310.09	3.882
310.45	4.016
310.81	4.035
311.17	3.981
311.53	4.168
311.89	4.274
312.25	3.935
312.61	3.913
312.96	3.797
313.32	3.809
313.68	3.579
314.04	3.857
314.40	3.858
314.76	3.874
315.12	4.148
315.48	4.081
315.84	3.902
316.20	4.167
316.56	4.140
316.92	4.152
317.27	4.073
317.63	4.151
317.99	3.857
318.35	3.694
318.71	3.463
319.07	3.239
319.43	3.171
319.79	3.163
320.15	2.951
320.50	2.883
320.86	2.917
321.22	3.060
321.58	2.903
321.94	2.730
322.30	2.552
322.66	2.679
323.01	2.530
323.37	2.582
323.73	2.521
324.09	2.600
324.45	2.586
324.81	2.623
325.17	2.453
325.52	2.553
325.88	2.571
326.24	2.744
326.60	2.696
326.96	2.768
327.31	2.547
327.67	2.583
328.03	2.436
328.39	2.566
328.75	2.440
329.11	2.395
329.46	2.440
329.82	2.534
330.18	2.453
330.54	2.466
330.90	2.348
331.25	2.657
331.61	2.681
331.97	2.684
332.33	2.568
332.68	2.633
333.04	2.780
333.40	2.686
333.76	2.700
334.11	2.805
334.47	2.750
334.83	2.859
335.19	2.615
335.54	2.718
335.90	2.962
336.26	2.911
336.62	2.792
336.97	2.742
337.33	2.626
337.69	2.599
338.05	2.434
338.40	2.463
338.76	2.499
339.12	2.641
339.48	2.465
339.83	2.282
340.19	2.357
340.55	2.399
340.90	2.472
341.26	2.655
341.62	2.639
341.97	2.742
342.33	2.581
342.69	2.579
343.04	2.436
343.40	2.517
343.76	2.578
344.12	2.623
344.47	2.725
344.83	2.635
345.19	2.482
345.54	2.620
345.90	2.544
346.26	2.699
346.61	2.568
346.97	2.697
347.32	2.525
347.68	2.510
348.04	2.394
348.39	2.270
348.75	2.186
349.11	2.163
349.46	1.985
349.82	2.047
350.18	1.913
350.53	1.925
350.89	1.792
351.24	1.848
351.60	1.769
351.96	1.861
352.31	1.857
352.67	1.833
353.02	1.987
353.38	1.973
353.74	1.967
354.09	2.040
354.45	2.033
354.80	2.092
355.16	2.038
355.52	2.120
355.87	2.101
356.23	2.073
356.58	2.092
356.94	1.916
357.29	1.935
357.65	1.874
358.00	1.868
358.36	1.944
358.72	1.929
359.07	2.009
359.43	1.905
359.78	1.839
360.14	1.883
360.49	1.853
360.85	1.893
361.20	1.801
361.56	1.785
361.91	1.720
362.27	1.660
362.62	1.590
362.98	1.452
363.33	1.485
363.69	1.362
364.04	1.259
364.40	1.141
364.75	1.073
365.11	1.103
365.46	1.073
365.82	1.019
366.17	0.938
366.53	0.882
366.88	0.889
367.24	0.782
367.59	0.789
367.95	0.848
368.30	0.973
368.66	0.988
369.01	1.025
369.37	1.056
369.72	1.074
370.08	1.125
370.43	1.180
370.78	1.282
371.14	1.374
371.49	1.444
371.85	1.436
372.20	1.404
372.56	1.432
372.91	1.371
373.26	1.354
373.62	1.321
373.97	1.296
374.33	1.204
374.68	1.120
375.03	1.055
375.39	0.996
375.74	0.953
376.10	0.970
376.45	0.944
376.80	0.969
377.16	0.973
377.51	1.045
377.87	1.127
378.22	1.273
378.57	1.392
378.93	1.523
379.28	1.629
379.63	1.687
379.99	1.767
380.34	1.842
380.70	1.985
381.05	2.014
381.40	2.085
381.76	2.078
382.11	2.068
382.46	2.060
382.82	2.038
383.17	2.092
383.52	2.137
383.88	2.088
384.23	2.148
384.58	2.094
384.94	2.123
385.29	2.113
385.64	2.121
385.99	2.096
386.35	2.051
386.70	2.008
387.05	1.955
387.41	1.902
387.76	1.901
388.11	1.861
388.47	1.837
388.82	1.896
389.17	1.916
389.52	1.957
389.88	2.008
390.23	2.077
390.58	2.170
390.93	2.238
391.29	2.273
391.64	2.309
391.99	2.340
392.34	2.318
392.70	2.233
393.05	2.194
393.40	2.119
393.75	2.051
394.11	1.973
394.46	1.869
394.81	1.777
395.16	1.690
395.52	1.579
395.87	1.412
396.22	1.272
396.57	1.140
396.92	0.973
397.28	0.846
397.63	0.683
397.98	0.520
398.33	0.385
398.68	0.217
399.04	0.132
399.39	0.050
399.74	-0.001
400.09	0.014
400.44	0.016
400.80	0.085
401.15	0.109
401.50	0.166
401.85	0.209
402.20	0.279
402.55	0.363
402.90	0.394
403.26	0.399
403.61	0.412
403.96	0.393
404.31	0.393
404.66	0.312
405.01	0.291
405.36	0.260
405.72	0.231
406.07	0.123
406.42	0.055
406.77	-0.013
407.12	-0.006
407.47	-0.056
407.82	-0.073
408.17	-0.106
408.53	-0.109
408.88	-0.180
409.23	-0.258
409.58	-0.302
409.93	-0.333
410.28	-0.406
410.63	-0.405
410.98	-0.468
411.33	-0.458
411.68	-0.438
412.03	-0.421
412.38	-0.406
412.73	-0.289
413.09	-0.173
413.44	-0.036
413.79	0.139
414.14	0.309
414.49	0.457
414.84	0.639
415.19	0.821
415.54	0.995
415.89	1.180
416.24	1.350
416.59	1.445
416.94	1.589
417.29	1.696
417.64	1.772
417.99	1.852
418.34	1.919
418.69	1.953
419.04	1.999
419.39	2.022
419.74	2.045
420.09	2.073
420.44	2.098
420.79	2.086
421.14	2.070
421.49	2.056
421.84	2.043
422.19	2.019
422.54	1.999
422.89	1.966
423.24	1.898
423.59	1.811
423.94	1.716
424.29	1.627
424.64	1.542
424.99	1.432
425.34	1.342
425.68	1.233
426.03	1.119
426.38	1.016
426.73	0.886
427.08	0.838
427.43	0.808
427.78	0.804
428.13	0.856
428.48	0.897
428.83	0.949
429.18	0.975
429.53	1.024
429.87	1.038
430.22	1.064
430.57	1.078
430.92	1.072
431.27	1.068
431.62	1.066
431.97	1.030
432.32	0.960
432.67	0.896
433.01	0.865
433.36	0.778
433.71	0.740
434.06	0.704
434.41	0.694
434.76	0.692
435.11	0.707
435.45	0.728
435.80	0.766
436.15	0.856
436.50	0.931
436.85	0.968
437.20	1.027
437.54	1.084
437.89	1.118
438.24	1.129
438.59	1.110
438.94	1.063
439.29	1.028
439.63	0.941
439.98	0.872
440.33	0.826
440.68	0.802
441.03	0.795
441.37	0.784
441.72	0.804
442.07	0.854
442.42	0.946
442.76	1.037
443.11	1.101
443.46	1.197
443.81	1.250
444.16	1.293
444.50	1.308
444.85	1.290
445.20	1.268
445.55	1.197
445.89	1.119
446.24	0.993
446.59	0.866
446.94	0.721
447.28	0.559
447.63	0.403
447.98	0.254
448.32	0.118
448.67	0.008
449.02	-0.095
449.37	-0.157
449.71	-0.194
450.06	-0.201
450.41	-0.205
450.75	-0.173
451.10	-0.151
451.45	-0.163
451.79	-0.168
452.14	-0.204
452.49	-0.218
452.84	-0.227
453.18	-0.223
453.53	-0.259
453.88	-0.251
454.22	-0.221
454.57	-0.180
454.92	-0.089
455.26	0.056
455.61	0.168
455.95	0.322
456.30	0.456
456.65	0.585
456.99	0.681
457.34	0.802
457.69	0.878
458.03	0.944
458.38	0.960
458.73	0.941
459.07	0.883
459.42	0.821
459.76	0.729
460.11	0.616
460.46	0.480
460.80	0.358
461.15	0.218
461.49	0.085
461.84	-0.052
462.19	-0.121
462.53	-0.212
462.88	-0.234
463.22	-0.227
463.57	-0.206
463.91	-0.199
464.26	-0.170
464.61	-0.167
464.95	-0.116
465.30	-0.066
465.64	-0.038
465.99	-0.052
466.33	-0.027
466.68	-0.047
467.02	-0.062
467.37	-0.098
467.71	-0.103
468.06	-0.140
468.41	-0.151
468.75	-0.247
469.10	-0.330
469.44	-0.408
469.79	-0.480
470.13	-0.547
470.48	-0.610
470.82	-0.702
471.17	-0.750
471.51	-0.813
471.86	-0.876
472.20	-0.921
472.55	-0.945
472.89	-0.990
473.23	-1.041
473.58	-1.075
473.92	-1.097
474.27	-1.132
474.61	-1.127
474.96	-1.148
475.30	-1.156
475.65	-1.151
475.99	-1.159
476.34	-1.164
476.68	-1.104
477.02	-1.051
477.37	-1.027
477.71	-0.963
478.06	-0.807
478.40	-0.576
478.75	-0.222
479.09	0.181
479.43	0.579
479.78	0.929
480.12	1.255
480.47	1.535
480.81	1.792
481.15	2.047
481.50	2.260
481.84	2.454
482.19	2.611
482.53	2.735
482.87	2.801
483.22	2.815
483.56	2.801
483.90	2.751
484.25	2.693
484.59	2.624
484.94	2.545
485.28	2.442
485.62	2.314
485.97	2.181
486.31	2.040
486.65	1.924
487.00	1.831
487.34	1.762
487.68	1.716
488.03	1.653
488.37	1.585
488.71	1.517
489.06	1.462
489.40	1.394
489.74	1.340
490.09	1.255
490.43	1.155
490.77	1.045
491.11	0.900
491.46	0.755
491.80	0.604
492.14	0.459
492.49	0.302
492.83	0.129
493.17	-0.035
493.51	-0.194
493.86	-0.331
494.20	-0.447
494.54	-0.493
494.88	-0.479
495.23	-0.434
495.57	-0.383
495.91	-0.308
496.25	-0.264
496.60	-0.202
496.94	-0.156
497.28	-0.111
497.62	-0.094
497.97	-0.075
498.31	-0.083
498.65	-0.080
498.99	-0.076
499.33	-0.040
499.68	-0.017
500.02	0.047
500.36	0.131
500.70	0.231
501.04	0.306
501.39	0.425
501.73	0.559
502.07	0.712
502.41	0.883
502.75	1.060
503.09	1.241
503.44	1.440
503.78	1.644
504.12	1.878
504.46	2.107
504.80	2.363
505.14	2.620
505.49	2.880
505.83	3.120
506.17	3.405
506.51	3.677
506.85	3.949
507.19	4.199
507.53	4.473
507.87	4.710
508.22	4.976
508.56	5.245
508.90	5.523
509.24	5.777
509.58	6.050
509.92	6.308
510.26	6.567
510.60	6.837
510.94	7.135
511.28	7.424
511.63	7.734
511.97	8.053
512.31	8.394
512.65	8.784
512.99	9.190
513.33	9.672
513.67	10.171
514.01	10.741
514.35	11.304
514.69	11.853
515.03	12.393
515.37	12.909
515.71	13.375
516.05	13.827
516.39	14.222
516.73	14.639
517.07	14.998
517.41	15.302
517.75	15.563
518.09	15.801
518.43	16.026
518.77	16.232
519.11	16.463
519.45	16.734
519.79	16.995
520.13	17.289
520.47	17.625
520.81	18.010
521.15	18.467
521.49	18.946
521.83	19.419
522.17	19.940
522.51	20.511
522.85	21.089
523.19	21.772
523.53	22.569
523.87	23.409
524.21	24.198
524.55	24.933
524.89	25.573
525.23	26.190
525.57	26.739
525.91	27.232
526.25	27.667
526.58	28.069
526.92	28.419
527.26	28.689
527.60	28.877
527.94	29.037
528.28	29.174
528.62	29.319
528.96	29.440
529.30	29.567
529.64	29.702
529.97	29.832
530.31	29.957
530.65	30.080
530.99	30.204
531.33	30.411
531.67	30.594
532.01	30.816
532.35	30.982
532.68	31.107
533.02	31.255
533.36	31.334
533.70	31.420
534.04	31.513
534.38	31.596
534.71	31.721
535.05	31.783
535.39	31.878
535.73	31.936
536.07	32.096
536.41	32.359
536.74	32.668
537.08	32.986
537.42	33.330
537.76	33.709
538.10	34.077
538.43	34.385
538.77	34.707
539.11	35.023
539.45	35.320
539.79	35.531
540.12	35.690
540.46	35.783
540.80	35.858
541.14	35.895
541.47	35.908
541.81	35.907
542.15	35.898
542.49	35.870
542.82	35.786
543.16	35.724
543.50	35.687
543.84	35.630
544.17	35.597
544.51	35.595
544.85	35.629
545.18	35.613
545.52	35.582
545.86	35.556
546.20	35.488
546.53	35.506
546.87	35.458
547.21	35.426
547.54	35.419
547.88	35.394
548.22	35.420
548.55	35.384
548.89	35.377
549.23	35.384
549.56	35.458
549.90	35.552
550.24	35.598
550.57	35.670
550.91	35.715
551.25	35.758
551.58	35.832
551.92	35.830
552.26	35.917
552.59	35.981
552.93	36.012
553.27	36.016
553.60	36.040
553.94	36.075
554.27	36.098
554.61	36.134
554.95	36.178
555.28	36.175
555.62	36.268
555.95	36.281
556.29	36.315
556.63	36.372
556.96	36.418
557.30	36.482
557.63	36.494
557.97	36.474
558.31	36.499
558.64	36.452
558.98	36.498
559.31	36.470
559.65	36.514
559.98	36.535
560.32	36.576
560.65	36.620
560.99	36.631
561.33	36.655
561.66	36.776
562.00	36.857
562.33	36.962
562.67	36.988
563.00	37.066
563.34	37.098
563.67	37.150
564.01	37.217
564.34	37.237
564.68	37.274
565.01	37.331
565.35	37.316
565.68	37.292
566.02	37.318
566.35	37.362
566.69	37.387
567.02	37.432
567.36	37.443
567.69	37.457
568.03	37.492
568.36	37.544
568.69	37.533
569.03	37.564
569.36	37.623
569.70	37.591
570.03	37.580
570.37	37.569
570.70	37.534
571.04	37.532
571.37	37.491
571.70	37.463
572.04	37.438
572.37	37.436
572.71	37.408
573.04	37.352
573.37	37.336
573.71	37.296
574.04	37.251
574.38	37.182
574.71	37.117
575.04	37.069
575.38	37.040
575.71	36.952
576.05	36.858
576.38	36.776
576.71	36.653
577.05	36.580
577.38	36.482
577.71	36.416
578.05	36.321
578.38	36.237
578.71	36.132
579.05	36.041
579.38	35.946
579.71	35.884
580.05	35.779
580.38	35.756
580.71	35.660
581.05	35.648
581.38	35.576
581.71	35.575
582.05	35.544
582.38	35.552
582.71	35.487
583.04	35.516
583.38	35.500
583.71	35.604
584.04	35.571
584.38	35.631
584.71	35.617
585.04	35.652
585.37	35.681
585.71	35.724
586.04	35.699
586.37	35.759
586.70	35.739
587.04	35.778
587.37	35.734
587.70	35.761
588.03	35.736
588.37	35.732
588.70	35.686
589.03	35.634
589.36	35.573
589.69	35.594
590.03	35.490
590.36	35.452
590.69	35.357
591.02	35.297
591.35	35.241
591.69	35.238
592.02	35.217
592.35	35.213
592.68	35.163
593.01	35.162
593.35	35.107
593.68	35.122
594.01	35.135
594.34	35.137
594.67	35.087
595.00	35.071
595.34	35.006
595.67	34.917
596.00	34.848
596.33	34.804
596.66	34.699
596.99	34.615
597.32	34.522
597.65	34.421
597.99	34.288
598.32	34.194
598.65	34.139
598.98	34.005
599.31	33.952
599.64	33.891
599.97	33.841
600.30	33.854
600.63	33.828
600.96	33.848
601.30	33.869
601.63	33.878
601.96	33.902
602.29	33.862
602.62	33.910
602.95	33.861
603.28	33.826
603.61	33.812
603.94	33.758
604.27	33.761
604.60	33.708
604.93	33.582
605.26	33.539
605.59	33.457
605.92	33.392
606.25	33.320
606.58	33.258
606.91	33.239
607.24	33.196
607.57	33.175
607.90	33.084
608.23	32.993
608.56	32.959
608.89	32.881
609.22	32.780
609.55	32.729
609.88	32.628
610.21	32.557
610.54	32.396
610.87	32.274
611.20	32.109
611.53	31.981
611.86	31.894
612.19	31.832
612.52	31.790
612.85	31.741
613.18	31.655
613.51	31.613
613.84	31.588
614.17	31.587
614.49	31.562
614.82	31.489
615.15	31.404
615.48	31.361
615.81	31.287
616.14	31.259
616.47	31.170
616.80	31.121
617.13	31.022
617.46	30.954
617.78	30.880
618.11	30.813
618.44	30.788
618.77	30.781
619.10	30.682
619.43	30.606
619.76	30.500
620.09	30.518
620.41	30.433
620.74	30.403
621.07	30.377
621.40	30.304
621.73	30.188
622.06	30.183
622.38	30.141
622.71	30.159
623.04	30.165
623.37	30.196
623.70	30.182
624.02	30.229
624.35	30.248
624.68	30.242
625.01	30.293
625.34	30.358
625.66	30.323
625.99	30.293
626.32	30.261
626.65	30.198
626.98	30.109
627.30	30.041
627.63	29.950
627.96	29.878
628.29	29.782
628.61	29.607
628.94	29.501
629.27	29.450
629.60	29.404
629.92	29.338
630.25	29.298
630.58	29.254
630.91	29.134
631.23	29.087
631.56	28.992
631.89	28.917
632.21	28.857
632.54	28.781
632.87	28.698
633.19	28.657
633.52	28.565
633.85	28.518
634.18	28.380
634.50	28.340
634.83	28.187
635.16	28.114
635.48	28.037
635.81	28.006
636.14	27.971
636.46	27.900
636.79	27.783
637.11	27.765
637.44	27.658
637.77	27.634
638.09	27.596
638.42	27.547
638.75	27.507
639.07	27.424
639.40	27.367
639.73	27.282
640.05	27.207
640.38	27.159
640.70	27.089
641.03	27.033
641.36	27.011
641.68	26.985
642.01	27.001
642.33	26.951
642.66	26.946
642.98	26.974
643.31	26.940
643.64	26.939
643.96	26.904
644.29	26.906
644.61	26.900
644.94	26.841
645.26	26.765
645.59	26.775
645.91	26.760
646.24	26.772
646.56	26.737
646.89	26.696
647.22	26.598
647.54	26.602
647.87	26.536
