OOIBase32 Version 2.0.0.6 Data File
++++++++++++++++++++++++++++++++++++
Date: 01-22-2012, 20:56:59
User: Valued Ocean Optics Customer
Spectrometer Serial Number: USB2E2917
Spectrometer Channel: Master
Integration Time (msec): 4
Spectra Averaged: 10
Boxcar Smoothing: 5
Correct for Electrical Dark: Enabled
Time Normalized: Disabled
Dual-beam Reference: Disabled
Reference Channel: Master
Temperature: Not acquired
Spectrometer Type: S2000
ADC Type: USB2000
Number of Pixels in File: 2048
Graph Title: 
>>>>>Begin Spectral Data<<<<<
180.30	0.000
180.67	0.000
181.03	-134.922
181.40	96.986
181.77	123.876
182.14	-159.160
182.51	301.801
182.88	214.432
183.25	176.963
183.62	608.689
183.99	96.702
184.36	73.011
184.73	149.713
185.10	996.856
185.46	-235.725
185.83	33.689
186.20	-16.311
186.57	298.670
186.94	135.843
187.31	-135.979
187.68	-593.877
188.05	-43.616
188.42	187.266
188.78	-5.630
189.15	77.195
189.52	37.902
189.89	24.628
190.26	24.099
190.63	-4.091
191.00	-1.298
191.37	10.986
191.73	4.692
192.10	-34.658
192.47	8.758
192.84	-56.065
193.21	-170.004
193.58	-239.856
193.94	-313.374
194.31	-139.935
194.68	-106.488
195.05	-128.454
195.42	-155.708
195.79	-123.981
196.15	-86.073
196.52	-79.609
196.89	-79.506
197.26	-94.254
197.63	-95.847
198.00	-87.555
198.36	-190.085
198.73	-80.323
199.10	19.773
199.47	14.600
199.84	4.152
200.20	-42.706
200.57	-18.883
200.94	0.892
201.31	16.901
201.68	23.038
202.04	21.915
202.41	24.388
202.78	16.732
203.15	15.809
203.51	13.944
203.88	13.052
204.25	14.176
204.62	6.564
204.98	5.804
205.35	-2.632
205.72	-24.298
206.09	-97.009
206.46	-54.831
206.82	-80.758
207.19	-95.017
207.56	-84.224
207.92	-106.573
208.29	-38.630
208.66	-30.335
209.03	-37.937
209.39	-21.891
209.76	-5.409
210.13	25.768
210.50	32.658
210.86	19.670
211.23	-3.242
211.60	-51.449
211.96	-30.415
212.33	-113.978
212.70	4342.498
213.07	418.362
213.43	388.828
213.80	1130.486
214.17	235.245
214.53	1354.208
214.90	-134.360
215.27	-22.823
215.63	-4.796
216.00	-3.111
216.37	12.292
216.74	15.676
217.10	20.246
217.47	21.678
217.84	9.942
218.20	5.804
218.57	21.652
218.94	4.101
219.30	6.692
219.67	7.302
220.04	16.172
220.40	24.691
220.77	23.755
221.13	23.372
221.50	27.252
221.87	28.570
222.23	38.164
222.60	19.266
222.97	22.280
223.33	7.879
223.70	6.705
224.07	1.237
224.43	-5.542
224.80	-0.788
225.16	-3.077
225.53	-1.284
225.90	0.130
226.26	-0.633
226.63	1.399
226.99	0.880
227.36	3.848
227.73	6.220
228.09	6.287
228.46	8.929
228.82	7.018
229.19	9.310
229.56	5.983
229.92	6.677
230.29	6.361
230.65	8.908
231.02	8.000
231.38	7.112
231.75	7.127
232.12	6.536
232.48	3.033
232.85	6.288
233.21	6.214
233.58	9.778
233.94	10.073
234.31	9.699
234.68	7.776
235.04	9.453
235.41	10.690
235.77	7.418
236.14	9.058
236.50	11.529
236.87	11.114
237.23	10.084
237.60	7.686
237.96	5.379
238.33	4.071
238.69	3.091
239.06	2.637
239.42	1.796
239.79	2.895
240.15	2.557
240.52	2.766
240.88	1.659
241.25	1.317
241.61	1.195
241.98	1.629
242.34	2.350
242.71	2.789
243.07	2.929
243.44	3.294
243.80	2.944
244.17	2.492
244.53	1.686
244.90	2.091
245.26	2.581
245.63	2.827
245.99	2.909
246.36	2.714
246.72	2.672
247.09	2.547
247.45	2.642
247.81	2.719
248.18	2.804
248.54	3.181
248.91	2.910
249.27	2.259
249.64	2.814
250.00	2.977
250.36	3.112
250.73	2.710
251.09	2.804
251.46	2.419
251.82	2.512
252.19	2.718
252.55	3.089
252.91	4.052
253.28	3.869
253.64	3.334
254.01	3.152
254.37	3.584
254.73	3.798
255.10	3.660
255.46	3.741
255.83	3.963
256.19	3.789
256.55	3.319
256.92	2.844
257.28	3.061
257.65	3.256
258.01	3.007
258.37	2.574
258.74	2.678
259.10	2.931
259.46	3.009
259.83	2.825
260.19	3.118
260.55	3.145
260.92	3.227
261.28	3.287
261.64	2.958
262.01	2.966
262.37	3.026
262.73	2.874
263.10	2.261
263.46	2.329
263.82	2.323
264.19	2.014
264.55	2.491
264.91	2.634
265.28	2.630
265.64	2.571
266.00	2.723
266.37	3.150
266.73	3.423
267.09	3.732
267.46	3.116
267.82	3.289
268.18	3.547
268.54	3.305
268.91	3.558
269.27	3.335
269.63	3.095
270.00	3.172
270.36	3.123
270.72	3.021
271.08	3.036
271.45	3.360
271.81	3.554
272.17	3.496
272.53	3.583
272.90	3.344
273.26	3.740
273.62	4.254
273.98	4.468
274.35	4.610
274.71	4.360
275.07	4.495
275.43	4.609
275.80	4.415
276.16	4.524
276.52	4.422
276.88	4.330
277.25	3.617
277.61	3.383
277.97	3.176
278.33	3.042
278.69	3.281
279.06	3.022
279.42	3.086
279.78	2.905
280.14	2.602
280.50	2.631
280.87	2.600
281.23	2.694
281.59	2.658
281.95	2.631
282.31	2.421
282.68	2.505
283.04	2.617
283.40	2.270
283.76	2.292
284.12	2.271
284.48	2.257
284.85	2.191
285.21	2.323
285.57	2.435
285.93	2.495
286.29	2.562
286.65	2.483
287.02	2.474
287.38	2.714
287.74	2.740
288.10	2.626
288.46	2.513
288.82	2.367
289.18	2.306
289.54	2.325
289.91	2.305
290.27	2.503
290.63	2.530
290.99	2.479
291.35	2.534
291.71	2.517
292.07	2.832
292.43	2.696
292.79	3.006
293.16	3.081
293.52	3.009
293.88	3.018
294.24	2.824
294.60	2.774
294.96	2.795
295.32	2.772
295.68	2.650
296.04	2.555
296.40	2.669
296.76	2.616
297.12	2.746
297.49	2.785
297.85	2.921
298.21	3.026
298.57	2.979
298.93	2.951
299.29	2.975
299.65	3.263
300.01	3.313
300.37	3.445
300.73	3.534
301.09	3.561
301.45	3.452
301.81	3.391
302.17	3.428
302.53	3.482
302.89	3.539
303.25	3.494
303.61	3.433
303.97	3.639
304.33	3.723
304.69	3.933
305.05	3.861
305.41	4.068
305.77	3.986
306.13	3.950
306.49	3.982
306.85	4.029
307.21	3.928
307.57	3.741
307.93	3.566
308.29	3.545
308.65	3.222
309.01	3.209
309.37	3.012
309.73	3.084
310.09	3.107
310.45	3.069
310.81	3.064
311.17	3.016
311.53	3.258
311.89	3.301
312.25	3.232
312.61	3.492
312.96	3.566
313.32	3.734
313.68	3.557
314.04	3.531
314.40	3.479
314.76	3.446
315.12	3.576
315.48	3.473
315.84	3.157
316.20	3.086
316.56	2.914
316.92	2.728
317.27	2.736
317.63	2.779
317.99	2.733
318.35	2.973
318.71	3.007
319.07	3.173
319.43	3.024
319.79	3.302
320.15	3.461
320.50	3.576
320.86	3.827
321.22	3.869
321.58	3.917
321.94	4.009
322.30	4.187
322.66	4.272
323.01	4.136
323.37	4.373
323.73	4.384
324.09	4.594
324.45	4.704
324.81	4.754
325.17	4.791
325.52	4.991
325.88	5.115
326.24	4.914
326.60	4.952
326.96	5.186
327.31	5.105
327.67	5.194
328.03	5.192
328.39	5.083
328.75	5.176
329.11	5.235
329.46	5.281
329.82	5.332
330.18	5.518
330.54	5.499
330.90	5.553
331.25	5.668
331.61	5.686
331.97	5.627
332.33	5.838
332.68	5.754
333.04	5.829
333.40	5.811
333.76	5.858
334.11	5.796
334.47	5.967
334.83	5.966
335.19	6.060
335.54	6.094
335.90	6.124
336.26	6.019
336.62	6.070
336.97	5.932
337.33	6.005
337.69	5.982
338.05	6.130
338.40	6.105
338.76	6.147
339.12	6.102
339.48	6.105
339.83	6.185
340.19	6.286
340.55	6.378
340.90	6.522
341.26	6.525
341.62	6.525
341.97	6.415
342.33	6.397
342.69	6.403
343.04	6.474
343.40	6.545
343.76	6.492
344.12	6.486
344.47	6.430
344.83	6.431
345.19	6.417
345.54	6.479
345.90	6.437
346.26	6.398
346.61	6.357
346.97	6.382
347.32	6.440
347.68	6.526
348.04	6.505
348.39	6.517
348.75	6.497
349.11	6.582
349.46	6.590
349.82	6.687
350.18	6.734
350.53	6.781
350.89	6.770
351.24	6.727
351.60	6.714
351.96	6.861
352.31	6.870
352.67	6.840
353.02	6.764
353.38	6.802
353.74	6.812
354.09	6.854
354.45	6.852
354.80	6.810
355.16	6.882
355.52	6.884
355.87	6.792
356.23	6.870
356.58	6.969
356.94	6.965
357.29	6.926
357.65	6.956
358.00	6.979
358.36	6.989
358.72	6.998
359.07	6.998
359.43	7.044
359.78	7.090
360.14	7.051
360.49	7.031
360.85	7.072
361.20	7.103
361.56	7.084
361.91	7.088
362.27	7.115
362.62	7.128
362.98	7.121
363.33	7.143
363.69	7.186
364.04	7.271
364.40	7.330
364.75	7.337
365.11	7.338
365.46	7.413
365.82	7.464
366.17	7.476
366.53	7.541
366.88	7.602
367.24	7.670
367.59	7.649
367.95	7.673
368.30	7.660
368.66	7.722
369.01	7.808
369.37	7.789
369.72	7.792
370.08	7.829
370.43	7.847
370.78	7.911
371.14	7.848
371.49	7.904
371.85	7.942
372.20	8.071
372.56	8.136
372.91	8.118
373.26	8.202
373.62	8.256
373.97	8.285
374.33	8.353
374.68	8.362
375.03	8.464
375.39	8.427
375.74	8.464
376.10	8.442
376.45	8.485
376.80	8.533
377.16	8.567
377.51	8.603
377.87	8.716
378.22	8.745
378.57	8.787
378.93	8.805
379.28	8.859
379.63	8.895
379.99	8.979
380.34	9.007
380.70	9.104
381.05	9.153
381.40	9.219
381.76	9.243
382.11	9.325
382.46	9.345
382.82	9.392
383.17	9.480
383.52	9.551
383.88	9.596
384.23	9.684
384.58	9.732
384.94	9.845
385.29	9.853
385.64	9.928
385.99	9.952
386.35	10.027
386.70	10.067
387.05	10.139
387.41	10.176
387.76	10.180
388.11	10.165
388.47	10.160
388.82	10.135
389.17	10.238
389.52	10.234
389.88	10.277
390.23	10.319
390.58	10.369
390.93	10.467
391.29	10.547
391.64	10.618
391.99	10.676
392.34	10.769
392.70	10.856
393.05	10.885
393.40	10.925
393.75	10.956
394.11	10.952
394.46	10.969
394.81	10.951
395.16	10.954
395.52	11.023
395.87	11.062
396.22	11.071
396.57	11.064
396.92	11.085
397.28	11.106
397.63	11.125
397.98	11.208
398.33	11.283
398.68	11.310
399.04	11.304
399.39	11.247
399.74	11.288
400.09	11.307
400.44	11.301
400.80	11.321
401.15	11.319
401.50	11.357
401.85	11.334
402.20	11.310
402.55	11.315
402.90	11.325
403.26	11.404
403.61	11.394
403.96	11.433
404.31	11.522
404.66	11.549
405.01	11.596
405.36	11.613
405.72	11.662
406.07	11.676
406.42	11.740
406.77	11.776
407.12	11.794
407.47	11.860
407.82	11.874
408.17	11.836
408.53	11.830
408.88	11.845
409.23	11.874
409.58	11.891
409.93	11.939
410.28	11.948
410.63	11.984
410.98	11.981
411.33	11.924
411.68	11.948
412.03	11.957
412.38	11.962
412.73	11.981
413.09	11.931
413.44	11.897
413.79	11.856
414.14	11.817
414.49	11.779
414.84	11.764
415.19	11.765
415.54	11.704
415.89	11.662
416.24	11.625
416.59	11.597
416.94	11.613
417.29	11.570
417.64	11.566
417.99	11.536
418.34	11.520
418.69	11.486
419.04	11.471
419.39	11.485
419.74	11.488
420.09	11.483
420.44	11.467
420.79	11.446
421.14	11.472
421.49	11.473
421.84	11.482
422.19	11.473
422.54	11.484
422.89	11.477
423.24	11.473
423.59	11.494
423.94	11.526
424.29	11.556
424.64	11.571
424.99	11.619
425.34	11.644
425.68	11.664
426.03	11.723
426.38	11.751
426.73	11.797
427.08	11.821
427.43	11.844
427.78	11.819
428.13	11.798
428.48	11.841
428.83	11.819
429.18	11.829
429.53	11.868
429.87	11.871
430.22	11.875
430.57	11.895
430.92	11.886
431.27	11.875
431.62	11.875
431.97	11.885
432.32	11.869
432.67	11.874
433.01	11.884
433.36	11.870
433.71	11.870
434.06	11.889
434.41	11.888
434.76	11.909
435.11	11.936
435.45	11.976
435.80	11.984
436.15	11.992
436.50	11.993
436.85	11.975
437.20	11.961
437.54	11.957
437.89	11.945
438.24	11.930
438.59	11.933
438.94	11.916
439.29	11.923
439.63	11.916
439.98	11.914
440.33	11.914
440.68	11.904
441.03	11.910
441.37	11.883
441.72	11.888
442.07	11.902
442.42	11.893
442.76	11.898
443.11	11.873
443.46	11.884
443.81	11.881
444.16	11.889
444.50	11.904
444.85	11.898
445.20	11.926
445.55	11.902
445.89	11.897
446.24	11.893
446.59	11.873
446.94	11.883
447.28	11.884
447.63	11.883
447.98	11.860
448.32	11.851
448.67	11.861
449.02	11.851
449.37	11.888
449.71	11.896
450.06	11.923
450.41	11.944
450.75	11.952
451.10	11.958
451.45	11.991
451.79	12.004
452.14	12.032
452.49	12.043
452.84	12.060
453.18	12.068
453.53	12.070
453.88	12.065
454.22	12.070
454.57	12.069
454.92	12.080
455.26	12.057
455.61	12.051
455.95	12.043
456.30	12.053
456.65	12.047
456.99	12.061
457.34	12.074
457.69	12.078
458.03	12.082
458.38	12.117
458.73	12.140
459.07	12.163
459.42	12.198
459.76	12.230
460.11	12.261
460.46	12.306
460.80	12.312
461.15	12.348
461.49	12.391
461.84	12.446
462.19	12.451
462.53	12.475
462.88	12.504
463.22	12.546
463.57	12.572
463.91	12.610
464.26	12.635
464.61	12.702
464.95	12.729
465.30	12.775
465.64	12.806
465.99	12.868
466.33	12.891
466.68	12.916
467.02	12.941
467.37	12.976
467.71	12.987
468.06	13.002
468.41	13.006
468.75	13.033
469.10	13.045
469.44	13.087
469.79	13.066
470.13	13.064
470.48	13.096
470.82	13.137
471.17	13.143
471.51	13.134
471.86	13.127
472.20	13.131
472.55	13.133
472.89	13.131
473.23	13.074
473.58	13.075
473.92	13.075
474.27	13.053
474.61	13.007
474.96	13.001
475.30	13.011
475.65	13.021
475.99	13.029
476.34	13.008
476.68	12.996
477.02	13.023
477.37	13.025
477.71	13.039
478.06	13.044
478.40	13.041
478.75	13.082
479.09	13.139
479.43	13.211
479.78	13.289
480.12	13.404
480.47	13.529
480.81	13.648
481.15	13.787
481.50	13.924
481.84	14.101
482.19	14.294
482.53	14.419
482.87	14.459
483.22	14.399
483.56	14.252
483.90	14.073
484.25	13.939
484.59	13.858
484.94	13.751
485.28	13.639
485.62	13.483
485.97	13.299
486.31	13.171
486.65	13.132
487.00	13.207
487.34	13.372
487.68	13.563
488.03	13.690
488.37	13.735
488.71	13.786
489.06	13.813
489.40	13.840
489.74	13.883
490.09	13.911
490.43	13.933
490.77	13.961
491.11	13.983
491.46	14.017
491.80	14.042
492.14	14.072
492.49	14.104
492.83	14.152
493.17	14.201
493.51	14.246
493.86	14.312
494.20	14.372
494.54	14.416
494.88	14.486
495.23	14.561
495.57	14.608
495.91	14.692
496.25	14.766
496.60	14.847
496.94	14.927
497.28	15.002
497.62	15.048
497.97	15.145
498.31	15.230
498.65	15.332
498.99	15.417
499.33	15.522
499.68	15.604
500.02	15.676
500.36	15.777
500.70	15.868
501.04	15.963
501.39	16.084
501.73	16.166
502.07	16.257
502.41	16.341
502.75	16.409
503.09	16.503
503.44	16.573
503.78	16.677
504.12	16.772
504.46	16.851
504.80	16.941
505.14	17.017
505.49	17.112
505.83	17.185
506.17	17.265
506.51	17.354
506.85	17.424
507.19	17.517
507.53	17.590
507.87	17.639
508.22	17.711
508.56	17.777
508.90	17.862
509.24	17.913
509.58	17.999
509.92	18.093
510.26	18.172
510.60	18.279
510.94	18.355
511.28	18.415
511.63	18.512
511.97	18.614
512.31	18.680
512.65	18.760
512.99	18.868
513.33	18.946
513.67	19.001
514.01	19.086
514.35	19.156
514.69	19.234
515.03	19.308
515.37	19.346
515.71	19.381
516.05	19.453
516.39	19.499
516.73	19.532
517.07	19.592
517.41	19.654
517.75	19.694
518.09	19.718
518.43	19.769
518.77	19.833
519.11	19.880
519.45	19.926
519.79	19.972
520.13	20.018
520.47	20.100
520.81	20.142
521.15	20.187
521.49	20.239
521.83	20.275
522.17	20.301
522.51	20.316
522.85	20.383
523.19	20.461
523.53	20.556
523.87	20.688
524.21	20.791
524.55	20.930
524.89	21.068
525.23	21.186
525.57	21.314
525.91	21.416
526.25	21.524
526.58	21.612
526.92	21.700
527.26	21.764
527.60	21.781
527.94	21.818
528.28	21.813
528.62	21.790
528.96	21.780
529.30	21.759
529.64	21.765
529.97	21.756
530.31	21.731
530.65	21.712
530.99	21.700
531.33	21.731
531.67	21.735
532.01	21.763
532.35	21.809
532.68	21.835
533.02	21.860
533.36	21.850
533.70	21.852
534.04	21.888
534.38	21.901
534.71	21.929
535.05	21.933
535.39	21.940
535.73	21.973
536.07	21.983
536.41	22.008
536.74	22.037
537.08	22.113
537.42	22.183
537.76	22.244
538.10	22.306
538.43	22.383
538.77	22.449
539.11	22.519
539.45	22.557
539.79	22.601
540.12	22.643
540.46	22.688
540.80	22.701
541.14	22.718
541.47	22.740
541.81	22.743
542.15	22.715
542.49	22.714
542.82	22.709
543.16	22.699
543.50	22.709
543.84	22.716
544.17	22.718
544.51	22.739
544.85	22.742
545.18	22.732
545.52	22.755
545.86	22.791
546.20	22.821
546.53	22.847
546.87	22.895
547.21	22.927
547.54	22.976
547.88	23.026
548.22	23.056
548.55	23.116
548.89	23.139
549.23	23.182
549.56	23.206
549.90	23.235
550.24	23.267
550.57	23.295
550.91	23.301
551.25	23.300
551.58	23.308
551.92	23.350
552.26	23.360
552.59	23.402
552.93	23.457
553.27	23.486
553.60	23.499
553.94	23.525
554.27	23.532
554.61	23.588
554.95	23.619
555.28	23.651
555.62	23.622
555.95	23.652
556.29	23.695
556.63	23.700
556.96	23.726
557.30	23.739
557.63	23.724
557.97	23.762
558.31	23.765
558.64	23.805
558.98	23.814
559.31	23.855
559.65	23.828
559.98	23.787
560.32	23.785
560.65	23.814
560.99	23.800
561.33	23.818
561.66	23.808
562.00	23.783
562.33	23.765
562.67	23.761
563.00	23.749
563.34	23.780
563.67	23.806
564.01	23.780
564.34	23.745
564.68	23.766
565.01	23.771
565.35	23.802
565.68	23.808
566.02	23.808
566.35	23.824
566.69	23.828
567.02	23.809
567.36	23.839
567.69	23.827
568.03	23.814
568.36	23.817
568.69	23.835
569.03	23.797
569.36	23.793
569.70	23.778
570.03	23.785
570.37	23.755
570.70	23.788
571.04	23.761
571.37	23.761
571.70	23.770
572.04	23.764
572.37	23.728
572.71	23.751
573.04	23.744
573.37	23.743
573.71	23.721
574.04	23.770
574.38	23.758
574.71	23.771
575.04	23.792
575.38	23.832
575.71	23.829
576.05	23.872
576.38	23.872
576.71	23.887
577.05	23.949
577.38	23.974
577.71	23.954
578.05	23.957
578.38	23.964
578.71	23.966
579.05	23.915
579.38	23.912
579.71	23.881
580.05	23.888
580.38	23.889
580.71	23.846
581.05	23.802
581.38	23.803
581.71	23.822
582.05	23.794
582.38	23.768
582.71	23.763
583.04	23.741
583.38	23.737
583.71	23.692
584.04	23.665
584.38	23.631
584.71	23.623
585.04	23.581
585.37	23.538
585.71	23.519
586.04	23.498
586.37	23.488
586.70	23.496
587.04	23.502
587.37	23.474
587.70	23.443
588.03	23.408
588.37	23.380
588.70	23.358
589.03	23.317
589.36	23.315
589.69	23.321
590.03	23.269
590.36	23.224
590.69	23.136
591.02	23.110
591.35	23.095
591.69	23.043
592.02	23.021
592.35	22.965
592.68	22.880
593.01	22.788
593.35	22.690
593.68	22.614
594.01	22.565
594.34	22.515
594.67	22.482
595.00	22.384
595.34	22.355
595.67	22.304
596.00	22.264
596.33	22.228
596.66	22.191
596.99	22.164
597.32	22.167
597.65	22.096
597.99	22.062
598.32	21.980
598.65	21.948
598.98	21.881
599.31	21.796
599.64	21.755
599.97	21.716
600.30	21.639
600.63	21.588
600.96	21.534
601.30	21.512
601.63	21.476
601.96	21.434
602.29	21.418
602.62	21.403
602.95	21.372
603.28	21.310
603.61	21.243
603.94	21.185
604.27	21.163
604.60	21.128
604.93	21.095
605.26	21.014
605.59	20.964
605.92	20.930
606.25	20.884
606.58	20.847
606.91	20.768
607.24	20.735
607.57	20.709
607.90	20.637
608.23	20.571
608.56	20.498
608.89	20.476
609.22	20.397
609.55	20.316
609.88	20.218
610.21	20.127
610.54	20.103
610.87	20.057
611.20	19.986
611.53	19.924
611.86	19.873
612.19	19.811
612.52	19.722
612.85	19.678
613.18	19.642
613.51	19.576
613.84	19.548
614.17	19.500
614.49	19.421
614.82	19.406
615.15	19.363
615.48	19.291
615.81	19.217
616.14	19.161
616.47	19.114
616.80	19.029
617.13	19.003
617.46	18.921
617.78	18.808
618.11	18.746
618.44	18.676
618.77	18.600
619.10	18.542
619.43	18.480
619.76	18.408
620.09	18.321
620.41	18.237
620.74	18.159
621.07	18.085
621.40	18.106
621.73	18.050
622.06	17.967
622.38	17.923
622.71	17.844
623.04	17.815
623.37	17.753
623.70	17.727
624.02	17.717
624.35	17.686
624.68	17.666
625.01	17.566
625.34	17.504
625.66	17.449
625.99	17.376
626.32	17.354
626.65	17.305
626.98	17.292
627.30	17.261
627.63	17.187
627.96	17.102
628.29	17.023
628.61	16.961
628.94	16.911
629.27	16.812
629.60	16.736
629.92	16.652
630.25	16.571
630.58	16.492
630.91	16.371
631.23	16.276
631.56	16.231
631.89	16.163
632.21	16.126
632.54	16.054
632.87	16.034
633.19	16.006
633.52	15.942
633.85	15.878
634.18	15.801
634.50	15.741
634.83	15.688
635.16	15.581
635.48	15.493
635.81	15.386
636.14	15.334
636.46	15.245
636.79	15.145
637.11	15.074
637.44	15.008
637.77	14.952
638.09	14.866
638.42	14.838
638.75	14.793
639.07	14.749
639.40	14.714
639.73	14.647
640.05	14.590
640.38	14.509
640.70	14.433
641.03	14.365
641.36	14.296
