OOIBase32 Version 2.0.0.6 Data File
++++++++++++++++++++++++++++++++++++
Date: 01-22-2012, 21:03:28
User: Valued Ocean Optics Customer
Spectrometer Serial Number: USB2E2917
Spectrometer Channel: Master
Integration Time (msec): 4
Spectra Averaged: 10
Boxcar Smoothing: 5
Correct for Electrical Dark: Enabled
Time Normalized: Disabled
Dual-beam Reference: Disabled
Reference Channel: Master
Temperature: Not acquired
Spectrometer Type: S2000
ADC Type: USB2000
Number of Pixels in File: 2048
Graph Title: 
>>>>>Begin Spectral Data<<<<<
180.30	0.000
180.67	0.000
181.03	144.848
181.40	39.257
181.77	-23.876
182.14	-203.409
182.51	219.660
182.88	-0.937
183.25	127.422
183.62	2.458
183.99	38.902
184.36	62.104
184.73	113.797
185.10	873.592
185.46	-28.998
185.83	77.262
186.20	-45.778
186.57	518.652
186.94	95.373
187.31	158.342
187.68	-3142.098
188.05	388.545
188.42	472.846
188.78	27.277
189.15	70.650
189.52	96.301
189.89	55.409
190.26	47.279
190.63	77.534
191.00	96.301
191.37	98.361
191.73	125.518
192.10	86.695
192.47	41.236
192.84	-177.924
193.21	-346.845
193.58	-421.941
193.94	-258.717
194.31	-75.418
194.68	-52.794
195.05	-48.074
195.42	-77.337
195.79	-88.133
196.15	-49.023
196.52	-23.305
196.89	-14.079
197.26	-14.950
197.63	-41.276
198.00	-83.469
198.36	-151.214
198.73	-176.749
199.10	-121.989
199.47	-38.686
199.84	-3.710
200.20	-33.782
200.57	-27.471
200.94	16.638
201.31	22.687
201.68	29.951
202.04	34.122
202.41	26.642
202.78	23.625
203.15	31.056
203.51	38.368
203.88	38.516
204.25	37.837
204.62	44.941
204.98	27.621
205.35	7.445
205.72	-6.924
206.09	-72.587
206.46	-36.235
206.82	-59.588
207.19	-96.310
207.56	-107.027
207.92	-84.285
208.29	-68.945
208.66	-56.140
209.03	-43.937
209.39	-11.739
209.76	9.549
210.13	34.035
210.50	29.644
210.86	22.388
211.23	19.708
211.60	-8.605
211.96	-40.174
212.33	-96.628
212.70	4103.167
213.07	462.374
213.43	310.724
213.80	1184.671
214.17	238.644
214.53	778.749
214.90	-25.780
215.27	12.042
215.63	-7.373
216.00	15.327
216.37	25.590
216.74	27.348
217.10	31.038
217.47	20.400
217.84	20.580
218.20	13.597
218.57	11.321
218.94	1.566
219.30	0.996
219.67	5.477
220.04	13.332
220.40	15.251
220.77	4.205
221.13	9.285
221.50	17.184
221.87	18.023
222.23	22.745
222.60	15.039
222.97	6.894
223.33	7.216
223.70	-0.414
224.07	-6.228
224.43	-8.583
224.80	-2.970
225.16	-4.899
225.53	-6.126
225.90	-5.832
226.26	-3.451
226.63	-3.318
226.99	-1.267
227.36	-1.309
227.73	2.626
228.09	2.196
228.46	4.231
228.82	2.843
229.19	2.930
229.56	1.830
229.92	3.454
230.29	2.982
230.65	5.036
231.02	3.697
231.38	3.924
231.75	2.490
232.12	4.214
232.48	3.125
232.85	5.684
233.21	6.201
233.58	9.903
233.94	9.143
234.31	9.722
234.68	8.362
235.04	11.209
235.41	11.824
235.77	11.049
236.14	11.174
236.50	11.636
236.87	11.184
237.23	10.402
237.60	7.107
237.96	5.394
238.33	3.764
238.69	4.206
239.06	2.733
239.42	2.089
239.79	2.933
240.15	2.607
240.52	2.414
240.88	1.998
241.25	2.285
241.61	2.162
241.98	2.786
242.34	2.950
242.71	2.478
243.07	2.752
243.44	3.412
243.80	3.085
244.17	2.617
244.53	2.192
244.90	2.334
245.26	2.747
245.63	3.224
245.99	3.117
246.36	3.015
246.72	3.203
247.09	3.273
247.45	3.200
247.81	3.549
248.18	4.036
248.54	4.640
248.91	4.847
249.27	4.092
249.64	4.249
250.00	4.512
250.36	5.039
250.73	4.950
251.09	4.938
251.46	4.503
251.82	4.572
252.19	4.265
252.55	4.174
252.91	4.323
253.28	4.741
253.64	4.421
254.01	4.024
254.37	3.371
254.73	3.469
255.10	2.986
255.46	3.653
255.83	3.685
256.19	3.563
256.55	3.647
256.92	3.496
257.28	3.524
257.65	3.717
258.01	3.729
258.37	3.911
258.74	3.649
259.10	3.981
259.46	3.805
259.83	3.558
260.19	3.685
260.55	3.491
260.92	3.421
261.28	3.261
261.64	3.115
262.01	2.987
262.37	2.483
262.73	2.633
263.10	1.966
263.46	2.018
263.82	1.985
264.19	1.686
264.55	1.875
264.91	2.339
265.28	2.863
265.64	2.982
266.00	3.256
266.37	3.941
266.73	4.273
267.09	4.492
267.46	4.127
267.82	4.384
268.18	4.544
268.54	4.244
268.91	4.342
269.27	3.924
269.63	3.567
270.00	3.542
270.36	3.454
270.72	2.860
271.08	2.831
271.45	3.107
271.81	3.337
272.17	3.566
272.53	3.851
272.90	3.674
273.26	3.697
273.62	3.922
273.98	4.084
274.35	3.893
274.71	4.110
275.07	4.233
275.43	4.250
275.80	4.090
276.16	3.835
276.52	3.666
276.88	3.542
277.25	3.473
277.61	3.352
277.97	3.208
278.33	3.267
278.69	3.452
279.06	3.336
279.42	3.319
279.78	3.352
280.14	3.420
280.50	3.662
280.87	3.730
281.23	3.785
281.59	3.937
281.95	3.951
282.31	4.145
282.68	4.015
283.04	3.979
283.40	3.666
283.76	3.602
284.12	3.613
284.48	3.579
284.85	3.461
285.21	3.618
285.57	3.501
285.93	3.711
286.29	3.446
286.65	3.366
287.02	3.587
287.38	3.886
287.74	3.804
288.10	3.706
288.46	3.492
288.82	3.557
289.18	3.134
289.54	3.136
289.91	2.865
290.27	3.031
290.63	3.135
290.99	3.018
291.35	2.931
291.71	2.854
292.07	2.927
292.43	3.080
292.79	3.141
293.16	3.490
293.52	3.541
293.88	3.566
294.24	3.448
294.60	3.581
294.96	3.585
295.32	3.649
295.68	3.600
296.04	3.709
296.40	3.785
296.76	3.790
297.12	3.718
297.49	3.656
297.85	3.857
298.21	3.829
298.57	3.818
298.93	3.928
299.29	4.008
299.65	4.298
300.01	4.209
300.37	4.211
300.73	4.260
301.09	4.390
301.45	4.370
301.81	4.227
302.17	4.275
302.53	4.228
302.89	4.128
303.25	3.935
303.61	3.861
303.97	3.956
304.33	3.974
304.69	4.108
305.05	4.073
305.41	4.307
305.77	4.276
306.13	4.474
306.49	4.682
306.85	4.790
307.21	4.845
307.57	4.774
307.93	4.701
308.29	4.795
308.65	4.589
309.01	4.569
309.37	4.374
309.73	4.411
310.09	4.313
310.45	4.222
310.81	4.214
311.17	4.184
311.53	4.225
311.89	4.273
312.25	4.202
312.61	4.350
312.96	4.444
313.32	4.586
313.68	4.455
314.04	4.550
314.40	4.460
314.76	4.524
315.12	4.661
315.48	4.672
315.84	4.496
316.20	4.315
316.56	4.363
316.92	4.250
317.27	4.271
317.63	4.372
317.99	4.174
318.35	4.369
318.71	4.297
319.07	4.345
319.43	4.235
319.79	4.422
320.15	4.594
320.50	4.556
320.86	4.686
321.22	4.694
321.58	4.605
321.94	4.630
322.30	4.626
322.66	4.639
323.01	4.551
323.37	4.730
323.73	4.534
324.09	4.673
324.45	4.643
324.81	4.684
325.17	4.731
325.52	4.963
325.88	5.026
326.24	4.975
326.60	4.957
326.96	4.998
327.31	4.759
327.67	5.016
328.03	4.957
328.39	4.911
328.75	4.953
329.11	4.913
329.46	4.711
329.82	4.696
330.18	4.785
330.54	4.894
330.90	4.904
331.25	5.067
331.61	4.980
331.97	4.945
332.33	4.941
332.68	4.868
333.04	4.814
333.40	4.926
333.76	5.037
334.11	4.973
334.47	4.932
334.83	4.982
335.19	5.000
335.54	4.968
335.90	4.820
336.26	4.797
336.62	4.767
336.97	4.752
337.33	4.704
337.69	4.664
338.05	4.721
338.40	4.661
338.76	4.629
339.12	4.605
339.48	4.568
339.83	4.702
340.19	4.815
340.55	4.851
340.90	4.924
341.26	4.988
341.62	5.003
341.97	5.039
342.33	5.043
342.69	5.062
343.04	5.122
343.40	5.178
343.76	5.132
344.12	5.074
344.47	4.936
344.83	4.998
345.19	4.934
345.54	4.972
345.90	4.795
346.26	4.840
346.61	4.750
346.97	4.670
347.32	4.690
347.68	4.802
348.04	4.832
348.39	4.907
348.75	4.815
349.11	4.791
349.46	4.774
349.82	4.824
350.18	4.761
350.53	4.852
350.89	4.848
351.24	4.893
351.60	4.825
351.96	4.863
352.31	4.873
352.67	4.897
353.02	4.952
353.38	4.917
353.74	4.994
354.09	5.060
354.45	4.980
354.80	4.984
355.16	4.977
355.52	4.979
355.87	4.856
356.23	4.898
356.58	4.876
356.94	4.915
357.29	4.924
357.65	4.844
358.00	4.807
358.36	4.814
358.72	4.764
359.07	4.704
359.43	4.718
359.78	4.775
360.14	4.718
360.49	4.745
360.85	4.660
361.20	4.691
361.56	4.727
361.91	4.766
362.27	4.773
362.62	4.805
362.98	4.817
363.33	4.748
363.69	4.768
364.04	4.769
364.40	4.786
364.75	4.826
365.11	4.795
365.46	4.732
365.82	4.634
366.17	4.646
366.53	4.640
366.88	4.677
367.24	4.706
367.59	4.654
367.95	4.662
368.30	4.623
368.66	4.661
369.01	4.692
369.37	4.727
369.72	4.774
370.08	4.777
370.43	4.837
370.78	4.818
371.14	4.844
371.49	4.852
371.85	4.894
372.20	4.947
372.56	4.925
372.91	4.884
373.26	4.942
373.62	4.912
373.97	4.941
374.33	4.917
374.68	4.941
375.03	4.893
375.39	4.914
375.74	4.900
376.10	4.891
376.45	4.897
376.80	4.915
377.16	4.878
377.51	4.934
377.87	4.934
378.22	4.930
378.57	4.906
378.93	4.949
379.28	4.959
379.63	4.990
379.99	5.006
380.34	4.993
380.70	5.043
381.05	5.120
381.40	5.090
381.76	5.124
382.11	5.150
382.46	5.199
382.82	5.175
383.17	5.187
383.52	5.210
383.88	5.230
384.23	5.274
384.58	5.264
384.94	5.247
385.29	5.355
385.64	5.373
385.99	5.407
386.35	5.411
386.70	5.460
387.05	5.509
387.41	5.513
387.76	5.501
388.11	5.514
388.47	5.496
388.82	5.482
389.17	5.469
389.52	5.457
389.88	5.483
390.23	5.540
390.58	5.543
390.93	5.601
391.29	5.681
391.64	5.750
391.99	5.785
392.34	5.863
392.70	5.950
393.05	5.980
393.40	6.077
393.75	6.113
394.11	6.126
394.46	6.174
394.81	6.181
395.16	6.187
395.52	6.228
395.87	6.300
396.22	6.356
396.57	6.358
396.92	6.389
397.28	6.349
397.63	6.375
397.98	6.445
398.33	6.539
398.68	6.562
399.04	6.573
399.39	6.582
399.74	6.605
400.09	6.648
400.44	6.710
400.80	6.808
401.15	6.915
401.50	7.011
401.85	7.052
402.20	7.109
402.55	7.194
402.90	7.272
403.26	7.369
403.61	7.438
403.96	7.475
404.31	7.580
404.66	7.628
405.01	7.722
405.36	7.756
405.72	7.827
406.07	7.890
406.42	8.002
406.77	8.111
407.12	8.200
407.47	8.275
407.82	8.384
408.17	8.441
408.53	8.545
408.88	8.596
409.23	8.675
409.58	8.803
409.93	8.922
410.28	8.975
410.63	9.054
410.98	9.108
411.33	9.209
411.68	9.336
412.03	9.403
412.38	9.452
412.73	9.518
413.09	9.604
413.44	9.671
413.79	9.762
414.14	9.874
414.49	9.940
414.84	10.027
415.19	10.076
415.54	10.135
415.89	10.200
416.24	10.308
416.59	10.397
416.94	10.482
417.29	10.515
417.64	10.559
417.99	10.597
418.34	10.666
418.69	10.730
419.04	10.816
419.39	10.888
419.74	10.987
420.09	11.053
420.44	11.119
420.79	11.203
421.14	11.299
421.49	11.376
421.84	11.455
422.19	11.527
422.54	11.614
422.89	11.704
423.24	11.780
423.59	11.868
423.94	11.959
424.29	12.068
424.64	12.173
424.99	12.291
425.34	12.404
425.68	12.551
426.03	12.727
426.38	12.854
426.73	12.983
427.08	13.098
427.43	13.227
427.78	13.314
428.13	13.394
428.48	13.496
428.83	13.572
429.18	13.650
429.53	13.726
429.87	13.793
430.22	13.873
430.57	13.955
430.92	14.024
431.27	14.076
431.62	14.157
431.97	14.228
432.32	14.286
432.67	14.361
433.01	14.458
433.36	14.546
433.71	14.600
434.06	14.688
434.41	14.761
434.76	14.863
435.11	14.972
435.45	15.060
435.80	15.122
436.15	15.199
436.50	15.250
436.85	15.310
437.20	15.366
437.54	15.418
437.89	15.469
438.24	15.514
438.59	15.556
438.94	15.578
439.29	15.628
439.63	15.703
439.98	15.770
440.33	15.848
440.68	15.919
441.03	15.984
441.37	16.062
441.72	16.124
442.07	16.188
442.42	16.262
442.76	16.328
443.11	16.345
443.46	16.383
443.81	16.415
444.16	16.469
444.50	16.506
444.85	16.544
445.20	16.603
445.55	16.650
445.89	16.700
446.24	16.738
446.59	16.809
446.94	16.925
447.28	17.018
447.63	17.107
447.98	17.197
448.32	17.270
448.67	17.350
449.02	17.452
449.37	17.542
449.71	17.637
450.06	17.741
450.41	17.806
450.75	17.873
451.10	17.937
451.45	18.008
451.79	18.068
452.14	18.185
452.49	18.257
452.84	18.322
453.18	18.395
453.53	18.456
453.88	18.499
454.22	18.576
454.57	18.619
454.92	18.710
455.26	18.770
455.61	18.822
455.95	18.854
456.30	18.919
456.65	18.954
456.99	19.003
457.34	19.071
457.69	19.142
458.03	19.174
458.38	19.256
458.73	19.326
459.07	19.399
459.42	19.473
459.76	19.563
460.11	19.664
460.46	19.768
460.80	19.868
461.15	19.980
461.49	20.093
461.84	20.247
462.19	20.355
462.53	20.443
462.88	20.553
463.22	20.658
463.57	20.744
463.91	20.819
464.26	20.923
464.61	21.011
464.95	21.099
465.30	21.206
465.64	21.257
465.99	21.347
466.33	21.432
466.68	21.487
467.02	21.578
467.37	21.646
467.71	21.711
468.06	21.742
468.41	21.811
468.75	21.889
469.10	21.932
469.44	22.033
469.79	22.061
470.13	22.129
470.48	22.214
470.82	22.268
471.17	22.306
471.51	22.357
471.86	22.435
472.20	22.469
472.55	22.486
472.89	22.536
473.23	22.517
473.58	22.544
473.92	22.532
474.27	22.536
474.61	22.541
474.96	22.556
475.30	22.569
475.65	22.544
475.99	22.554
476.34	22.559
476.68	22.543
477.02	22.567
477.37	22.581
477.71	22.598
478.06	22.594
478.40	22.624
478.75	22.736
479.09	22.859
479.43	23.015
479.78	23.190
480.12	23.359
480.47	23.573
480.81	23.780
481.15	24.007
481.50	24.242
481.84	24.554
482.19	24.870
482.53	25.086
482.87	25.144
483.22	25.022
483.56	24.727
483.90	24.440
484.25	24.222
484.59	24.109
484.94	23.966
485.28	23.788
485.62	23.523
485.97	23.232
486.31	23.012
486.65	22.960
487.00	23.109
487.34	23.461
487.68	23.804
488.03	24.038
488.37	24.100
488.71	24.154
489.06	24.219
489.40	24.298
489.74	24.355
490.09	24.427
490.43	24.488
490.77	24.536
491.11	24.596
491.46	24.663
491.80	24.721
492.14	24.800
492.49	24.898
492.83	24.993
493.17	25.083
493.51	25.192
493.86	25.321
494.20	25.447
494.54	25.574
494.88	25.679
495.23	25.803
495.57	25.925
495.91	26.073
496.25	26.202
496.60	26.352
496.94	26.492
497.28	26.641
497.62	26.755
497.97	26.920
498.31	27.095
498.65	27.267
498.99	27.466
499.33	27.654
499.68	27.815
500.02	27.999
500.36	28.162
500.70	28.334
501.04	28.501
501.39	28.680
501.73	28.823
502.07	28.984
502.41	29.161
502.75	29.290
503.09	29.432
503.44	29.607
503.78	29.733
504.12	29.894
504.46	30.044
504.80	30.189
505.14	30.351
505.49	30.517
505.83	30.667
506.17	30.801
506.51	30.941
506.85	31.077
507.19	31.193
507.53	31.340
507.87	31.485
508.22	31.637
508.56	31.772
508.90	31.904
509.24	32.022
509.58	32.164
509.92	32.324
510.26	32.466
510.60	32.613
510.94	32.795
511.28	32.965
511.63	33.105
511.97	33.223
512.31	33.399
512.65	33.529
512.99	33.691
513.33	33.844
513.67	33.961
514.01	34.090
514.35	34.190
514.69	34.271
515.03	34.353
515.37	34.421
515.71	34.522
516.05	34.583
516.39	34.671
516.73	34.718
517.07	34.786
517.41	34.866
517.75	34.939
518.09	35.024
518.43	35.134
518.77	35.221
519.11	35.317
519.45	35.379
519.79	35.436
520.13	35.489
520.47	35.589
520.81	35.671
521.15	35.737
521.49	35.815
521.83	35.860
522.17	35.872
522.51	35.935
522.85	35.986
523.19	36.100
523.53	36.278
523.87	36.453
524.21	36.630
524.55	36.800
524.89	36.958
525.23	37.110
525.57	37.281
525.91	37.422
526.25	37.546
526.58	37.688
526.92	37.790
527.26	37.863
527.60	37.892
527.94	37.882
528.28	37.857
528.62	37.820
528.96	37.768
529.30	37.707
529.64	37.667
529.97	37.612
530.31	37.513
530.65	37.434
530.99	37.359
531.33	37.328
531.67	37.334
532.01	37.336
532.35	37.351
532.68	37.365
533.02	37.361
533.36	37.317
533.70	37.320
534.04	37.335
534.38	37.347
534.71	37.362
535.05	37.350
535.39	37.307
535.73	37.290
536.07	37.263
536.41	37.275
536.74	37.266
537.08	37.275
537.42	37.293
537.76	37.342
538.10	37.383
538.43	37.413
538.77	37.462
539.11	37.526
539.45	37.572
539.79	37.608
540.12	37.624
540.46	37.652
540.80	37.637
541.14	37.605
541.47	37.579
541.81	37.541
542.15	37.492
542.49	37.452
542.82	37.393
543.16	37.321
543.50	37.307
543.84	37.270
544.17	37.232
544.51	37.272
544.85	37.280
545.18	37.238
545.52	37.230
545.86	37.247
546.20	37.261
546.53	37.296
546.87	37.335
547.21	37.325
547.54	37.360
547.88	37.375
548.22	37.392
548.55	37.411
548.89	37.412
549.23	37.417
549.56	37.410
549.90	37.418
550.24	37.403
550.57	37.378
550.91	37.363
551.25	37.329
551.58	37.328
551.92	37.329
552.26	37.312
552.59	37.337
552.93	37.341
553.27	37.301
553.60	37.257
553.94	37.207
554.27	37.190
554.61	37.190
554.95	37.197
555.28	37.195
555.62	37.126
555.95	37.136
556.29	37.141
556.63	37.118
556.96	37.157
557.30	37.144
557.63	37.133
557.97	37.134
558.31	37.069
558.64	37.027
558.98	36.977
559.31	36.990
559.65	36.904
559.98	36.800
560.32	36.773
560.65	36.707
560.99	36.642
561.33	36.620
561.66	36.562
562.00	36.529
562.33	36.448
562.67	36.376
563.00	36.292
563.34	36.255
563.67	36.257
564.01	36.175
564.34	36.114
564.68	36.088
565.01	36.046
565.35	36.037
565.68	36.003
566.02	35.952
566.35	35.952
566.69	35.902
567.02	35.858
567.36	35.834
567.69	35.803
568.03	35.721
568.36	35.687
568.69	35.628
569.03	35.543
569.36	35.470
569.70	35.420
570.03	35.358
570.37	35.288
570.70	35.247
571.04	35.145
571.37	35.084
571.70	35.081
572.04	35.003
572.37	34.986
572.71	34.961
573.04	34.930
573.37	34.924
573.71	34.897
574.04	34.961
574.38	34.950
574.71	34.956
575.04	34.979
575.38	34.977
575.71	35.011
576.05	35.014
576.38	34.997
576.71	34.994
577.05	34.996
577.38	34.977
577.71	34.891
578.05	34.859
578.38	34.845
578.71	34.767
579.05	34.714
579.38	34.673
579.71	34.587
580.05	34.563
580.38	34.539
580.71	34.483
581.05	34.438
581.38	34.428
581.71	34.375
582.05	34.332
582.38	34.269
582.71	34.232
583.04	34.179
583.38	34.157
583.71	34.093
584.04	34.026
584.38	33.977
584.71	33.885
585.04	33.822
585.37	33.743
585.71	33.692
586.04	33.642
586.37	33.564
586.70	33.457
587.04	33.405
587.37	33.307
587.70	33.243
588.03	33.127
588.37	33.107
588.70	33.012
589.03	32.973
589.36	32.849
589.69	32.798
590.03	32.707
590.36	32.681
590.69	32.537
591.02	32.465
591.35	32.357
591.69	32.321
592.02	32.190
592.35	32.104
592.68	32.006
593.01	31.918
593.35	31.813
593.68	31.730
594.01	31.626
594.34	31.574
594.67	31.474
595.00	31.381
595.34	31.284
595.67	31.211
596.00	31.134
596.33	31.057
596.66	31.041
596.99	31.010
597.32	30.977
597.65	30.904
597.99	30.811
598.32	30.774
598.65	30.742
598.98	30.635
599.31	30.567
599.64	30.476
599.97	30.396
600.30	30.273
600.63	30.204
600.96	30.139
601.30	30.033
601.63	29.981
601.96	29.913
602.29	29.868
602.62	29.817
602.95	29.753
603.28	29.709
603.61	29.625
603.94	29.541
604.27	29.437
604.60	29.326
604.93	29.332
605.26	29.266
605.59	29.186
605.92	29.113
606.25	29.099
606.58	29.049
606.91	28.950
607.24	28.931
607.57	28.893
607.90	28.860
608.23	28.854
608.56	28.732
608.89	28.709
609.22	28.668
609.55	28.630
609.88	28.569
610.21	28.549
610.54	28.557
610.87	28.497
611.20	28.468
611.53	28.380
611.86	28.306
612.19	28.323
612.52	28.214
612.85	28.152
613.18	28.081
613.51	28.018
613.84	27.903
614.17	27.812
614.49	27.744
614.82	27.722
615.15	27.725
615.48	27.673
615.81	27.628
616.14	27.618
616.47	27.570
616.80	27.529
617.13	27.446
617.46	27.416
617.78	27.321
618.11	27.278
618.44	27.209
618.77	27.113
619.10	27.029
619.43	26.902
619.76	26.794
620.09	26.701
620.41	26.605
620.74	26.561
621.07	26.513
621.40	26.550
621.73	26.455
622.06	26.374
622.38	26.318
622.71	26.252
623.04	26.206
623.37	26.159
623.70	26.111
624.02	26.078
624.35	25.990
624.68	25.930
625.01	25.805
625.34	25.766
625.66	25.686
625.99	25.638
626.32	25.597
626.65	25.544
626.98	25.507
627.30	25.451
627.63	25.408
627.96	25.387
628.29	25.335
628.61	25.293
628.94	25.223
629.27	25.200
629.60	25.126
629.92	25.117
630.25	25.075
630.58	24.978
630.91	24.901
631.23	24.787
631.56	24.690
631.89	24.587
632.21	24.545
632.54	24.543
632.87	24.482
633.19	24.449
633.52	24.355
633.85	24.318
634.18	24.308
634.50	24.299
634.83	24.247
635.16	24.234
635.48	24.196
635.81	24.164
636.14	24.072
636.46	24.039
636.79	23.969
637.11	23.881
637.44	23.792
637.77	23.767
638.09	23.703
638.42	23.682
638.75	23.640
639.07	23.608
639.40	23.529
639.73	23.466
640.05	23.348
640.38	23.330
640.70	23.287
641.03	23.238
641.36	23.153
641.68	23.071
642.01	23.020
642.33	22.994
642.66	22.963
642.98	22.897
643.31	22.873
