OOIBase32 Version 2.0.0.6 Data File
++++++++++++++++++++++++++++++++++++
Date: 01-23-2012, 23:24:40
User: Valued Ocean Optics Customer
Spectrometer Serial Number: USB2E2917
Spectrometer Channel: Master
Integration Time (msec): 5
Spectra Averaged: 10
Boxcar Smoothing: 5
Correct for Electrical Dark: Enabled
Time Normalized: Disabled
Dual-beam Reference: Disabled
Reference Channel: Master
Temperature: Not acquired
Spectrometer Type: S2000
ADC Type: USB2000
Number of Pixels in File: 2048
Graph Title: 
>>>>>Begin Spectral Data<<<<<
180.30	0.000
180.67	0.000
181.03	111.072
181.40	215.576
181.77	-4122.706
182.14	29.239
182.51	-362.345
182.88	210.876
183.25	63.610
183.62	126.726
183.99	124.773
184.36	125.051
184.73	28.565
185.10	-8.551
185.46	-467.593
185.83	-1.424
186.20	901.297
186.57	55.829
186.94	8.638
187.31	25.082
187.68	107.083
188.05	116.227
188.42	177.877
188.78	335.260
189.15	820.927
189.52	-190.989
189.89	-61.157
190.26	-65.793
190.63	-23.198
191.00	-17.337
191.37	5.648
191.73	27.807
192.10	30.327
192.47	32.152
192.84	41.187
193.21	46.636
193.58	37.856
193.94	43.195
194.31	52.191
194.68	56.457
195.05	46.102
195.42	48.157
195.79	29.519
196.15	33.698
196.52	40.992
196.89	38.215
197.26	32.679
197.63	36.303
198.00	41.768
198.36	43.896
198.73	12.079
199.10	11.684
199.47	-0.197
199.84	-4.547
200.20	7.660
200.57	7.001
200.94	-10.520
201.31	-20.720
201.68	-27.537
202.04	-30.663
202.41	-36.895
202.78	-43.742
203.15	-43.094
203.51	-26.009
203.88	-24.215
204.25	-32.940
204.62	-42.012
204.98	-52.601
205.35	-41.907
205.72	-33.633
206.09	-23.312
206.46	-53.022
206.82	-19.013
207.19	-27.229
207.56	-75.785
207.92	-66.315
208.29	-83.239
208.66	-61.280
209.03	-40.636
209.39	-23.200
209.76	-14.733
210.13	-49.064
210.50	-17.038
210.86	-17.191
211.23	-24.108
211.60	-8.988
211.96	-4.640
212.33	7.746
212.70	5.630
213.07	1.671
213.43	-24.107
213.80	-35.697
214.17	-9.566
214.53	-9.854
214.90	-9.774
215.27	-5.865
215.63	-8.686
216.00	-12.946
216.37	-11.611
216.74	-16.581
217.10	-0.635
217.47	-1.509
217.84	-1.401
218.20	-3.087
218.57	0.334
218.94	1.940
219.30	-2.901
219.67	-7.658
220.04	-6.973
220.40	-7.145
220.77	-10.484
221.13	-11.740
221.50	-8.000
221.87	-5.807
222.23	-7.439
222.60	-12.565
222.97	-13.405
223.33	-10.049
223.70	-6.616
224.07	-5.958
224.43	-8.553
224.80	-2.771
225.16	-4.694
225.53	-4.707
225.90	-7.196
226.26	-5.527
226.63	-3.504
226.99	-2.591
227.36	-0.818
227.73	1.581
228.09	1.880
228.46	3.820
228.82	4.135
229.19	3.641
229.56	3.499
229.92	6.179
230.29	6.742
230.65	6.131
231.02	5.718
231.38	1.747
231.75	-1.242
232.12	-3.050
232.48	-5.501
232.85	-6.709
233.21	-6.035
233.58	-6.554
233.94	-7.085
234.31	-7.829
234.68	-6.667
235.04	-6.352
235.41	-1.819
235.77	-0.010
236.14	1.357
236.50	2.612
236.87	1.440
237.23	1.592
237.60	1.294
237.96	1.350
238.33	0.975
238.69	0.495
239.06	0.529
239.42	0.111
239.79	-0.769
240.15	-0.655
240.52	-0.265
240.88	0.953
241.25	1.134
241.61	1.678
241.98	1.515
242.34	1.675
242.71	1.903
243.07	2.237
243.44	2.029
243.80	2.315
244.17	2.548
244.53	2.139
244.90	1.759
245.26	1.451
245.63	1.335
245.99	1.157
246.36	1.211
246.72	1.136
247.09	0.612
247.45	0.786
247.81	0.897
248.18	0.384
248.54	0.421
248.91	0.035
249.27	0.348
249.64	0.672
250.00	0.906
250.36	0.527
250.73	0.405
251.09	0.922
251.46	0.990
251.82	0.974
252.19	1.589
252.55	1.780
252.91	2.457
253.28	2.620
253.64	2.127
254.01	2.264
254.37	2.963
254.73	3.282
255.10	3.133
255.46	3.289
255.83	3.181
256.19	2.713
256.55	2.461
256.92	2.332
257.28	2.130
257.65	2.206
258.01	2.135
258.37	1.854
258.74	1.694
259.10	1.503
259.46	1.208
259.83	1.022
260.19	1.185
260.55	1.300
260.92	1.257
261.28	1.098
261.64	1.057
262.01	1.296
262.37	1.373
262.73	1.595
263.10	2.045
263.46	2.229
263.82	2.259
264.19	2.115
264.55	1.630
264.91	1.507
265.28	1.639
265.64	1.699
266.00	1.449
266.37	1.534
266.73	1.245
267.09	1.115
267.46	1.015
267.82	0.978
268.18	1.208
268.54	1.613
268.91	1.900
269.27	1.875
269.63	2.097
270.00	2.109
270.36	2.079
270.72	2.254
271.08	2.127
271.45	1.986
271.81	2.034
272.17	1.856
272.53	1.778
272.90	1.736
273.26	1.866
273.62	1.480
273.98	1.461
274.35	1.511
274.71	1.512
275.07	1.680
275.43	1.909
275.80	1.913
276.16	1.961
276.52	1.833
276.88	1.596
277.25	1.257
277.61	1.204
277.97	1.036
278.33	0.996
278.69	0.901
279.06	1.133
279.42	1.101
279.78	0.975
280.14	1.072
280.50	1.161
280.87	1.272
281.23	1.445
281.59	1.598
281.95	1.799
282.31	1.854
282.68	1.724
283.04	1.482
283.40	1.542
283.76	1.732
284.12	1.783
284.48	1.753
284.85	1.771
285.21	1.826
285.57	1.804
285.93	1.799
286.29	1.776
286.65	2.018
287.02	2.228
287.38	2.175
287.74	2.095
288.10	2.028
288.46	2.159
288.82	1.971
289.18	2.047
289.54	2.080
289.91	2.113
290.27	2.201
290.63	2.233
290.99	2.018
291.35	2.066
291.71	2.146
292.07	2.040
292.43	1.973
292.79	2.280
293.16	2.311
293.52	2.347
293.88	2.408
294.24	2.445
294.60	2.389
294.96	2.413
295.32	2.442
295.68	2.468
296.04	2.509
296.40	2.537
296.76	2.374
297.12	2.255
297.49	2.156
297.85	2.027
298.21	1.796
298.57	1.573
298.93	1.617
299.29	1.399
299.65	1.387
300.01	1.402
300.37	1.334
300.73	1.538
301.09	1.653
301.45	1.751
301.81	1.876
302.17	2.057
302.53	2.183
302.89	2.155
303.25	2.292
303.61	2.329
303.97	2.149
304.33	2.224
304.69	2.236
305.05	2.135
305.41	2.162
305.77	2.193
306.13	2.111
306.49	2.032
306.85	2.129
307.21	2.196
307.57	2.222
307.93	2.399
308.29	2.527
308.65	2.509
309.01	2.551
309.37	2.548
309.73	2.536
310.09	2.781
310.45	2.958
310.81	2.938
311.17	2.877
311.53	2.788
311.89	2.804
312.25	2.686
312.61	2.611
312.96	2.643
313.32	2.732
313.68	2.557
314.04	2.259
314.40	2.258
314.76	2.161
315.12	2.195
315.48	2.321
315.84	2.268
316.20	2.289
316.56	2.251
316.92	2.153
317.27	1.961
317.63	2.020
317.99	2.009
318.35	1.954
318.71	2.064
319.07	2.114
319.43	2.058
319.79	2.117
320.15	2.101
320.50	2.213
320.86	2.380
321.22	2.513
321.58	2.544
321.94	2.515
322.30	2.445
322.66	2.395
323.01	2.322
323.37	2.294
323.73	2.250
324.09	2.246
324.45	2.289
324.81	2.097
325.17	2.129
325.52	2.082
325.88	2.136
326.24	2.222
326.60	2.239
326.96	2.284
327.31	2.273
327.67	2.211
328.03	2.228
328.39	2.184
328.75	2.286
329.11	2.304
329.46	2.397
329.82	2.443
330.18	2.425
330.54	2.371
330.90	2.305
331.25	2.324
331.61	2.480
331.97	2.469
332.33	2.476
332.68	2.423
333.04	2.396
333.40	2.286
333.76	2.229
334.11	2.190
334.47	2.295
334.83	2.329
335.19	2.309
335.54	2.240
335.90	2.278
336.26	2.302
336.62	2.392
336.97	2.312
337.33	2.281
337.69	2.273
338.05	2.196
338.40	2.136
338.76	2.154
339.12	2.196
339.48	2.223
339.83	2.194
340.19	2.084
340.55	2.107
340.90	2.084
341.26	2.072
341.62	2.094
341.97	2.140
342.33	2.148
342.69	2.156
343.04	2.164
343.40	2.045
343.76	1.977
344.12	2.057
344.47	2.032
344.83	2.093
345.19	2.178
345.54	2.199
345.90	2.235
346.26	2.268
346.61	2.294
346.97	2.276
347.32	2.362
347.68	2.432
348.04	2.346
348.39	2.262
348.75	2.316
349.11	2.302
349.46	2.335
349.82	2.328
350.18	2.267
350.53	2.285
350.89	2.280
351.24	2.225
351.60	2.212
351.96	2.310
352.31	2.318
352.67	2.286
353.02	2.278
353.38	2.219
353.74	2.267
354.09	2.268
354.45	2.258
354.80	2.218
355.16	2.257
355.52	2.216
355.87	2.103
356.23	2.161
356.58	2.119
356.94	2.150
357.29	2.167
357.65	2.102
358.00	2.118
358.36	2.082
358.72	2.103
359.07	2.116
359.43	2.211
359.78	2.295
360.14	2.302
360.49	2.290
360.85	2.288
361.20	2.273
361.56	2.276
361.91	2.256
362.27	2.258
362.62	2.254
362.98	2.264
363.33	2.167
363.69	2.077
364.04	2.100
364.40	2.083
364.75	2.061
365.11	2.042
365.46	1.983
365.82	2.030
366.17	2.021
366.53	2.056
366.88	2.029
367.24	2.062
367.59	2.113
367.95	2.065
368.30	2.046
368.66	2.078
369.01	2.075
369.37	2.131
369.72	2.130
370.08	2.158
370.43	2.149
370.78	2.143
371.14	2.071
371.49	2.083
371.85	2.080
372.20	2.124
372.56	2.094
372.91	2.132
373.26	2.156
373.62	2.099
373.97	2.086
374.33	2.096
374.68	2.087
375.03	2.143
375.39	2.118
375.74	2.097
376.10	2.111
376.45	2.131
376.80	2.124
377.16	2.064
377.51	2.054
377.87	2.066
378.22	1.979
378.57	2.001
378.93	2.016
379.28	2.046
379.63	2.038
379.99	2.062
380.34	2.051
380.70	2.055
381.05	2.130
381.40	2.186
381.76	2.244
382.11	2.308
382.46	2.339
382.82	2.360
383.17	2.333
383.52	2.368
383.88	2.346
384.23	2.334
384.58	2.315
384.94	2.249
385.29	2.233
385.64	2.189
385.99	2.179
386.35	2.176
386.70	2.188
387.05	2.192
387.41	2.183
387.76	2.159
388.11	2.164
388.47	2.157
388.82	2.219
389.17	2.233
389.52	2.241
389.88	2.271
390.23	2.237
390.58	2.268
390.93	2.277
391.29	2.285
391.64	2.327
391.99	2.366
392.34	2.426
392.70	2.397
393.05	2.369
393.40	2.366
393.75	2.340
394.11	2.337
394.46	2.238
394.81	2.233
395.16	2.200
395.52	2.151
395.87	2.089
396.22	2.078
396.57	2.065
396.92	2.064
397.28	2.016
397.63	1.981
397.98	1.977
398.33	2.004
398.68	1.986
399.04	2.003
399.39	1.979
399.74	1.990
400.09	1.959
400.44	1.959
400.80	1.926
401.15	1.925
401.50	1.945
401.85	1.968
402.20	1.956
402.55	1.967
402.90	1.950
403.26	1.968
403.61	1.959
403.96	1.941
404.31	1.933
404.66	1.956
405.01	1.926
405.36	1.930
405.72	1.889
406.07	1.879
406.42	1.872
406.77	1.856
407.12	1.855
407.47	1.865
407.82	1.865
408.17	1.853
408.53	1.848
408.88	1.856
409.23	1.849
409.58	1.821
409.93	1.843
410.28	1.837
410.63	1.846
410.98	1.840
411.33	1.830
411.68	1.833
412.03	1.858
412.38	1.865
412.73	1.903
413.09	1.936
413.44	1.992
413.79	1.986
414.14	2.000
414.49	2.034
414.84	2.046
415.19	2.065
415.54	2.087
415.89	2.097
416.24	2.141
416.59	2.158
416.94	2.167
417.29	2.189
417.64	2.211
417.99	2.228
418.34	2.236
418.69	2.256
419.04	2.254
419.39	2.261
419.74	2.267
420.09	2.264
420.44	2.270
420.79	2.262
421.14	2.254
421.49	2.263
421.84	2.264
422.19	2.278
422.54	2.279
422.89	2.292
423.24	2.294
423.59	2.293
423.94	2.256
424.29	2.247
424.64	2.246
424.99	2.250
425.34	2.233
425.68	2.215
426.03	2.169
426.38	2.154
426.73	2.143
427.08	2.128
427.43	2.137
427.78	2.166
428.13	2.144
428.48	2.151
428.83	2.132
429.18	2.137
429.53	2.141
429.87	2.153
430.22	2.155
430.57	2.169
430.92	2.164
431.27	2.153
431.62	2.137
431.97	2.171
432.32	2.165
432.67	2.167
433.01	2.145
433.36	2.137
433.71	2.129
434.06	2.104
434.41	2.079
434.76	2.089
435.11	2.095
435.45	2.108
435.80	2.091
436.15	2.103
436.50	2.119
436.85	2.155
437.20	2.166
437.54	2.161
437.89	2.194
438.24	2.226
438.59	2.227
438.94	2.216
439.29	2.205
439.63	2.204
439.98	2.193
440.33	2.174
440.68	2.169
441.03	2.186
441.37	2.211
441.72	2.215
442.07	2.210
442.42	2.228
442.76	2.247
443.11	2.272
443.46	2.292
443.81	2.309
444.16	2.334
444.50	2.323
444.85	2.324
445.20	2.322
445.55	2.318
445.89	2.312
446.24	2.300
446.59	2.281
446.94	2.269
447.28	2.245
447.63	2.229
447.98	2.214
448.32	2.226
448.67	2.201
449.02	2.181
449.37	2.150
449.71	2.145
450.06	2.135
450.41	2.148
450.75	2.160
451.10	2.162
451.45	2.147
451.79	2.132
452.14	2.108
452.49	2.108
452.84	2.104
453.18	2.119
453.53	2.102
453.88	2.092
454.22	2.098
454.57	2.098
454.92	2.118
455.26	2.149
455.61	2.198
455.95	2.237
456.30	2.263
456.65	2.301
456.99	2.322
457.34	2.354
457.69	2.378
458.03	2.390
458.38	2.398
458.73	2.396
459.07	2.388
459.42	2.364
459.76	2.329
460.11	2.308
460.46	2.273
460.80	2.253
461.15	2.225
461.49	2.186
461.84	2.170
462.19	2.142
462.53	2.132
462.88	2.117
463.22	2.107
463.57	2.110
463.91	2.109
464.26	2.129
464.61	2.126
464.95	2.111
465.30	2.115
465.64	2.112
465.99	2.132
466.33	2.133
466.68	2.144
467.02	2.137
467.37	2.145
467.71	2.133
468.06	2.133
468.41	2.121
468.75	2.127
469.10	2.134
469.44	2.116
469.79	2.090
470.13	2.064
470.48	2.038
470.82	2.035
471.17	2.024
471.51	2.013
471.86	1.977
472.20	1.974
472.55	1.979
472.89	1.976
473.23	1.963
473.58	1.960
473.92	1.963
474.27	1.959
474.61	1.954
474.96	1.967
475.30	1.982
475.65	1.994
475.99	1.991
476.34	1.993
476.68	1.986
477.02	2.008
477.37	2.028
477.71	2.064
478.06	2.109
478.40	2.176
478.75	2.232
479.09	2.315
479.43	2.409
479.78	2.511
480.12	2.617
480.47	2.716
480.81	2.807
481.15	2.895
481.50	2.986
481.84	3.079
482.19	3.161
482.53	3.243
482.87	3.297
483.22	3.309
483.56	3.283
483.90	3.222
484.25	3.159
484.59	3.089
484.94	3.020
485.28	2.946
485.62	2.868
485.97	2.788
486.31	2.718
486.65	2.658
487.00	2.630
487.34	2.630
487.68	2.641
488.03	2.655
488.37	2.673
488.71	2.680
489.06	2.671
489.40	2.671
489.74	2.663
490.09	2.645
490.43	2.629
490.77	2.613
491.11	2.591
491.46	2.573
491.80	2.557
492.14	2.527
492.49	2.503
492.83	2.489
493.17	2.452
493.51	2.434
493.86	2.416
494.20	2.414
494.54	2.400
494.88	2.418
495.23	2.441
495.57	2.448
495.91	2.473
496.25	2.508
496.60	2.533
496.94	2.555
497.28	2.571
497.62	2.585
497.97	2.593
498.31	2.618
498.65	2.618
498.99	2.616
499.33	2.648
499.68	2.672
500.02	2.684
500.36	2.709
500.70	2.732
501.04	2.756
501.39	2.772
501.73	2.804
502.07	2.840
502.41	2.887
502.75	2.922
503.09	2.959
503.44	2.985
503.78	3.017
504.12	3.053
504.46	3.111
504.80	3.177
505.14	3.262
505.49	3.323
505.83	3.382
506.17	3.448
506.51	3.518
506.85	3.565
507.19	3.627
507.53	3.686
507.87	3.746
508.22	3.790
508.56	3.830
508.90	3.858
509.24	3.898
509.58	3.939
509.92	3.974
510.26	4.012
510.60	4.062
510.94	4.107
511.28	4.150
511.63	4.198
511.97	4.247
512.31	4.289
512.65	4.355
512.99	4.421
513.33	4.506
513.67	4.568
514.01	4.669
514.35	4.760
514.69	4.863
515.03	4.954
515.37	5.048
515.71	5.132
516.05	5.219
516.39	5.282
516.73	5.353
517.07	5.400
517.41	5.457
517.75	5.487
518.09	5.533
518.43	5.540
518.77	5.554
519.11	5.570
519.45	5.580
519.79	5.610
520.13	5.630
520.47	5.650
520.81	5.684
521.15	5.735
521.49	5.783
521.83	5.836
522.17	5.920
522.51	6.014
522.85	6.093
523.19	6.220
523.53	6.342
523.87	6.485
524.21	6.622
524.55	6.753
524.89	6.865
525.23	6.989
525.57	7.080
525.91	7.169
526.25	7.242
526.58	7.326
526.92	7.382
527.26	7.425
527.60	7.444
527.94	7.462
528.28	7.462
528.62	7.452
528.96	7.432
529.30	7.424
529.64	7.407
529.97	7.393
530.31	7.359
530.65	7.333
530.99	7.320
531.33	7.325
531.67	7.311
532.01	7.324
532.35	7.334
532.68	7.345
533.02	7.340
533.36	7.330
533.70	7.321
534.04	7.314
534.38	7.312
534.71	7.297
535.05	7.283
535.39	7.281
535.73	7.266
536.07	7.275
536.41	7.283
536.74	7.306
537.08	7.337
537.42	7.386
537.76	7.442
538.10	7.493
538.43	7.533
538.77	7.586
539.11	7.640
539.45	7.684
539.79	7.718
540.12	7.754
540.46	7.769
540.80	7.783
541.14	7.773
541.47	7.745
541.81	7.715
542.15	7.704
542.49	7.666
542.82	7.637
543.16	7.605
543.50	7.575
543.84	7.527
544.17	7.492
544.51	7.459
544.85	7.432
545.18	7.439
545.52	7.440
545.86	7.425
546.20	7.427
546.53	7.415
546.87	7.393
547.21	7.364
547.54	7.344
547.88	7.334
548.22	7.337
548.55	7.346
548.89	7.316
549.23	7.310
549.56	7.301
549.90	7.307
550.24	7.303
550.57	7.306
550.91	7.303
551.25	7.319
551.58	7.332
551.92	7.325
552.26	7.319
552.59	7.332
552.93	7.346
553.27	7.352
553.60	7.345
553.94	7.311
554.27	7.302
554.61	7.313
554.95	7.302
555.28	7.295
555.62	7.292
555.95	7.300
556.29	7.306
556.63	7.285
556.96	7.279
557.30	7.280
557.63	7.292
557.97	7.314
558.31	7.301
558.64	7.302
558.98	7.315
559.31	7.334
559.65	7.323
559.98	7.314
560.32	7.314
560.65	7.321
560.99	7.321
561.33	7.322
561.66	7.307
562.00	7.333
562.33	7.339
562.67	7.329
563.00	7.337
563.34	7.355
563.67	7.367
564.01	7.382
564.34	7.372
564.68	7.364
565.01	7.371
565.35	7.370
565.68	7.347
566.02	7.324
566.35	7.301
566.69	7.257
567.02	7.272
567.36	7.244
567.69	7.235
568.03	7.236
568.36	7.224
568.69	7.220
569.03	7.210
569.36	7.217
569.70	7.219
570.03	7.235
570.37	7.252
570.70	7.222
571.04	7.215
571.37	7.213
571.70	7.203
572.04	7.185
572.37	7.153
572.71	7.124
573.04	7.104
573.37	7.095
573.71	7.060
574.04	7.036
574.38	7.024
574.71	7.009
575.04	6.972
575.38	6.951
575.71	6.926
576.05	6.917
576.38	6.923
576.71	6.877
577.05	6.865
577.38	6.844
577.71	6.790
578.05	6.736
578.38	6.714
578.71	6.677
579.05	6.616
579.38	6.596
579.71	6.579
580.05	6.526
580.38	6.507
580.71	6.475
581.05	6.455
581.38	6.469
581.71	6.475
582.05	6.464
582.38	6.446
582.71	6.463
583.04	6.467
583.38	6.442
583.71	6.457
584.04	6.473
584.38	6.440
584.71	6.441
585.04	6.445
585.37	6.434
585.71	6.429
586.04	6.439
586.37	6.461
586.70	6.451
587.04	6.462
587.37	6.458
587.70	6.444
588.03	6.469
588.37	6.496
588.70	6.486
589.03	6.461
589.36	6.467
589.69	6.463
590.03	6.433
590.36	6.419
590.69	6.391
591.02	6.354
591.35	6.342
591.69	6.308
592.02	6.275
592.35	6.263
592.68	6.289
593.01	6.257
593.35	6.248
593.68	6.251
594.01	6.265
594.34	6.272
594.67	6.290
595.00	6.292
595.34	6.293
595.67	6.276
596.00	6.264
596.33	6.213
596.66	6.201
596.99	6.178
597.32	6.140
597.65	6.091
597.99	6.045
598.32	5.997
598.65	5.960
598.98	5.924
599.31	5.899
599.64	5.888
599.97	5.892
600.30	5.898
600.63	5.895
600.96	5.901
601.30	5.920
601.63	5.965
601.96	6.001
602.29	6.005
602.62	6.000
602.95	6.010
603.28	6.002
603.61	5.981
603.94	5.953
604.27	5.930
604.60	5.897
604.93	5.877
605.26	5.838
605.59	5.826
605.92	5.802
606.25	5.810
606.58	5.789
606.91	5.749
607.24	5.753
607.57	5.745
607.90	5.740
608.23	5.751
608.56	5.722
608.89	5.688
609.22	5.624
609.55	5.599
609.88	5.535
610.21	5.513
610.54	5.489
610.87	5.457
611.20	5.406
611.53	5.375
611.86	5.293
612.19	5.224
612.52	5.173
612.85	5.177
613.18	5.148
613.51	5.114
613.84	5.034
614.17	5.009
614.49	4.984
614.82	4.975
615.15	4.946
615.48	4.946
615.81	4.964
616.14	4.968
616.47	4.904
616.80	4.852
617.13	4.852
617.46	4.841
617.78	4.819
618.11	4.778
618.44	4.749
618.77	4.715
619.10	4.703
619.43	4.661
619.76	4.608
620.09	4.635
620.41	4.661
620.74	4.666
621.07	4.710
621.40	4.724
621.73	4.752
622.06	4.759
622.38	4.794
622.71	4.819
623.04	4.881
623.37	4.945
623.70	4.954
624.02	4.987
624.35	5.044
624.68	5.059
625.01	5.106
625.34	5.150
625.66	5.176
625.99	5.203
626.32	5.187
626.65	5.210
626.98	5.192
627.30	5.203
627.63	5.171
627.96	5.084
628.29	5.017
628.61	4.959
628.94	4.898
629.27	4.873
629.60	4.796
629.92	4.775
630.25	4.698
630.58	4.693
630.91	4.666
631.23	4.624
631.56	4.647
631.89	4.652
632.21	4.637
632.54	4.606
632.87	4.545
633.19	4.501
633.52	4.472
633.85	4.457
634.18	4.370
634.50	4.274
634.83	4.254
635.16	4.199
635.48	4.117
635.81	4.041
636.14	3.960
636.46	3.934
636.79	3.883
637.11	3.810
637.44	3.716
637.77	3.661
638.09	3.590
638.42	3.490
638.75	3.400
639.07	3.380
639.40	3.303
639.73	3.213
640.05	3.128
640.38	3.143
640.70	3.077
641.03	3.025
641.36	2.974
641.68	2.958
642.01	2.939
642.33	2.916
642.66	2.849
642.98	2.827
643.31	2.836
643.64	2.851
643.96	2.778
644.29	2.786
644.61	2.789
644.94	2.807
645.26	2.797
645.59	2.819
645.91	2.803
646.24	2.855
646.56	2.853
646.89	2.852
647.22	2.810
647.54	2.804
647.87	2.814
648.19	2.794
648.52	2.807
648.84	2.828
649.17	2.759
649.49	2.764
649.82	2.713
650.14	2.738
650.47	2.731
650.79	2.768
651.11	2.778
651.44	2.766
651.76	2.767
652.09	2.784
652.41	2.814
652.74	2.881
653.06	2.905
653.39	2.956
653.71	2.986
654.04	3.004
654.36	3.041
654.68	3.076
655.01	3.131
655.33	3.182
655.66	3.172
655.98	3.208
656.30	3.200
656.63	3.225
656.95	3.270
657.28	3.282
657.60	3.302
657.92	3.293
658.25	3.274
658.57	3.289
658.90	3.282
