OOIBase32 Version 2.0.0.6 Data File
++++++++++++++++++++++++++++++++++++
Date: 01-23-2012, 23:24:55
User: Valued Ocean Optics Customer
Spectrometer Serial Number: USB2E2917
Spectrometer Channel: Master
Integration Time (msec): 5
Spectra Averaged: 10
Boxcar Smoothing: 5
Correct for Electrical Dark: Enabled
Time Normalized: Disabled
Dual-beam Reference: Disabled
Reference Channel: Master
Temperature: Not acquired
Spectrometer Type: S2000
ADC Type: USB2000
Number of Pixels in File: 2048
Graph Title: 
>>>>>Begin Spectral Data<<<<<
180.30	0.000
180.67	0.000
181.03	-14.391
181.40	141.215
181.77	-8038.379
182.14	75.982
182.51	-472.455
182.88	-36.381
183.25	19.004
183.62	35.795
183.99	286.145
184.36	67.365
184.73	385.143
185.10	9.750
185.46	53.770
185.83	-256.628
186.20	-664.059
186.57	84.249
186.94	-15.335
187.31	58.509
187.68	-117.316
188.05	66.197
188.42	42.448
188.78	68.951
189.15	131.461
189.52	24.837
189.89	-9.513
190.26	-20.988
190.63	-3.825
191.00	17.721
191.37	11.982
191.73	19.621
192.10	23.558
192.47	13.605
192.84	15.182
193.21	19.141
193.58	14.273
193.94	18.964
194.31	30.528
194.68	30.696
195.05	9.441
195.42	18.080
195.79	12.451
196.15	1.648
196.52	19.646
196.89	20.651
197.26	11.436
197.63	29.376
198.00	31.946
198.36	17.621
198.73	25.622
199.10	24.366
199.47	13.973
199.84	30.480
200.20	30.106
200.57	20.970
200.94	13.529
201.31	16.677
201.68	-1.128
202.04	-5.011
202.41	-6.504
202.78	-20.417
203.15	-17.688
203.51	-25.257
203.88	-32.348
204.25	-39.963
204.62	-64.149
204.98	-69.653
205.35	-75.402
205.72	-67.446
206.09	-72.949
206.46	-131.062
206.82	-111.772
207.19	-111.082
207.56	-151.466
207.92	-123.574
208.29	-144.925
208.66	-92.155
209.03	-98.390
209.39	-80.294
209.76	-87.633
210.13	-147.244
210.50	-99.413
210.86	-79.730
211.23	-79.989
211.60	-53.646
211.96	-54.792
212.33	-23.823
212.70	-26.729
213.07	-21.667
213.43	-34.488
213.80	-42.262
214.17	-3.131
214.53	5.262
214.90	8.914
215.27	4.540
215.63	4.392
216.00	4.260
216.37	2.117
216.74	-6.128
217.10	6.216
217.47	10.460
217.84	20.044
218.20	11.106
218.57	10.616
218.94	9.781
219.30	3.905
219.67	-3.125
220.04	2.561
220.40	-2.015
220.77	-0.862
221.13	-6.357
221.50	-4.594
221.87	-3.384
222.23	-3.973
222.60	-6.219
222.97	-10.290
223.33	-2.546
223.70	0.930
224.07	-1.279
224.43	-2.409
224.80	-1.722
225.16	-1.177
225.53	-2.898
225.90	-6.187
226.26	-4.984
226.63	-3.209
226.99	-0.515
227.36	1.395
227.73	2.311
228.09	1.540
228.46	3.319
228.82	4.923
229.19	4.917
229.56	5.413
229.92	7.427
230.29	7.073
230.65	6.373
231.02	5.244
231.38	2.209
231.75	0.069
232.12	-0.445
232.48	-3.239
232.85	-4.883
233.21	-5.232
233.58	-5.072
233.94	-5.429
234.31	-5.382
234.68	-4.366
235.04	-4.959
235.41	-3.182
235.77	-0.633
236.14	0.216
236.50	1.992
236.87	3.023
237.23	4.327
237.60	3.958
237.96	3.941
238.33	3.331
238.69	2.484
239.06	2.381
239.42	2.296
239.79	1.331
240.15	1.562
240.52	1.578
240.88	1.746
241.25	1.627
241.61	2.112
241.98	2.062
242.34	2.309
242.71	3.072
243.07	3.523
243.44	3.334
243.80	3.524
244.17	3.567
244.53	3.479
244.90	3.488
245.26	3.505
245.63	3.289
245.99	3.282
246.36	3.347
246.72	3.377
247.09	3.026
247.45	3.221
247.81	3.481
248.18	3.382
248.54	3.616
248.91	3.330
249.27	3.182
249.64	3.464
250.00	3.844
250.36	4.005
250.73	3.610
251.09	3.945
251.46	3.877
251.82	3.752
252.19	3.753
252.55	3.352
252.91	3.828
253.28	4.030
253.64	3.651
254.01	3.339
254.37	3.402
254.73	3.873
255.10	4.057
255.46	4.407
255.83	4.660
256.19	4.571
256.55	4.557
256.92	4.509
257.28	4.309
257.65	4.619
258.01	4.572
258.37	4.676
258.74	4.579
259.10	4.390
259.46	4.268
259.83	3.952
260.19	4.071
260.55	4.288
260.92	4.027
261.28	4.120
261.64	3.892
262.01	3.991
262.37	3.633
262.73	3.598
263.10	3.849
263.46	3.825
263.82	4.001
264.19	4.069
264.55	3.592
264.91	3.781
265.28	3.702
265.64	3.572
266.00	3.392
266.37	3.365
266.73	3.219
267.09	3.208
267.46	3.172
267.82	3.095
268.18	2.982
268.54	3.250
268.91	3.306
269.27	3.325
269.63	3.783
270.00	4.013
270.36	4.088
270.72	4.356
271.08	4.312
271.45	4.257
271.81	4.504
272.17	4.459
272.53	4.477
272.90	4.573
273.26	4.779
273.62	4.318
273.98	4.125
274.35	4.016
274.71	3.840
275.07	3.975
275.43	4.156
275.80	4.031
276.16	4.220
276.52	4.152
276.88	4.075
277.25	3.922
277.61	3.942
277.97	4.010
278.33	4.073
278.69	3.943
279.06	3.899
279.42	3.768
279.78	4.007
280.14	4.022
280.50	4.089
280.87	4.098
281.23	4.258
281.59	4.559
281.95	4.524
282.31	4.625
282.68	4.523
283.04	4.401
283.40	4.472
283.76	4.477
284.12	4.600
284.48	4.590
284.85	4.572
285.21	4.565
285.57	4.333
285.93	4.440
286.29	4.425
286.65	4.718
287.02	5.101
287.38	5.212
287.74	5.123
288.10	5.053
288.46	5.052
288.82	5.215
289.18	5.221
289.54	5.343
289.91	5.372
290.27	5.502
290.63	5.524
290.99	5.441
291.35	5.431
291.71	5.492
292.07	5.542
292.43	5.597
292.79	5.575
293.16	5.504
293.52	5.765
293.88	5.797
294.24	5.928
294.60	5.955
294.96	5.939
295.32	6.131
295.68	6.252
296.04	6.391
296.40	6.564
296.76	6.637
297.12	6.731
297.49	6.609
297.85	6.682
298.21	6.607
298.57	6.374
298.93	6.429
299.29	6.174
299.65	6.189
300.01	6.094
300.37	6.147
300.73	6.276
301.09	6.445
301.45	6.577
301.81	6.675
302.17	6.822
302.53	6.946
302.89	6.915
303.25	7.038
303.61	6.988
303.97	6.918
304.33	6.796
304.69	6.928
305.05	6.922
305.41	6.888
305.77	6.868
306.13	6.875
306.49	7.033
306.85	7.181
307.21	7.294
307.57	7.276
307.93	7.256
308.29	7.441
308.65	7.356
309.01	7.302
309.37	7.244
309.73	7.230
310.09	7.268
310.45	7.311
310.81	7.252
311.17	7.257
311.53	7.343
311.89	7.430
312.25	7.438
312.61	7.419
312.96	7.469
313.32	7.626
313.68	7.609
314.04	7.609
314.40	7.673
314.76	7.657
315.12	7.618
315.48	7.579
315.84	7.679
316.20	7.549
316.56	7.464
316.92	7.462
317.27	7.474
317.63	7.564
317.99	7.372
318.35	7.417
318.71	7.484
319.07	7.624
319.43	7.671
319.79	7.708
320.15	7.762
320.50	7.824
320.86	7.887
321.22	7.850
321.58	7.772
321.94	7.860
322.30	7.706
322.66	7.615
323.01	7.383
323.37	7.339
323.73	7.283
324.09	7.207
324.45	7.302
324.81	7.268
325.17	7.298
325.52	7.314
325.88	7.355
326.24	7.501
326.60	7.604
326.96	7.780
327.31	7.841
327.67	7.795
328.03	7.831
328.39	7.772
328.75	7.739
329.11	7.726
329.46	7.777
329.82	7.799
330.18	7.672
330.54	7.674
330.90	7.617
331.25	7.564
331.61	7.683
331.97	7.717
332.33	7.749
332.68	7.771
333.04	7.883
333.40	7.875
333.76	7.909
334.11	7.938
334.47	7.882
334.83	7.864
335.19	7.907
335.54	7.847
335.90	7.906
336.26	7.868
336.62	7.890
336.97	7.752
337.33	7.683
337.69	7.650
338.05	7.622
338.40	7.550
338.76	7.495
339.12	7.565
339.48	7.527
339.83	7.481
340.19	7.499
340.55	7.511
340.90	7.593
341.26	7.604
341.62	7.525
341.97	7.562
342.33	7.711
342.69	7.770
343.04	7.694
343.40	7.664
343.76	7.628
344.12	7.619
344.47	7.696
344.83	7.648
345.19	7.688
345.54	7.781
345.90	7.872
346.26	7.857
346.61	7.898
346.97	7.908
347.32	7.997
347.68	7.959
348.04	7.975
348.39	7.891
348.75	7.930
349.11	7.990
349.46	7.973
349.82	7.949
350.18	7.945
350.53	7.943
350.89	7.949
351.24	7.912
351.60	7.993
351.96	7.990
352.31	8.020
352.67	8.000
353.02	7.947
353.38	7.969
353.74	7.987
354.09	7.952
354.45	7.992
354.80	8.091
355.16	8.179
355.52	8.164
355.87	8.120
356.23	8.119
356.58	8.168
356.94	8.217
357.29	8.207
357.65	8.165
358.00	8.202
358.36	8.184
358.72	8.089
359.07	8.081
359.43	8.119
359.78	8.209
360.14	8.241
360.49	8.233
360.85	8.224
361.20	8.268
361.56	8.269
361.91	8.314
362.27	8.375
362.62	8.456
362.98	8.472
363.33	8.482
363.69	8.485
364.04	8.540
364.40	8.566
364.75	8.596
365.11	8.590
365.46	8.635
365.82	8.613
366.17	8.580
366.53	8.618
366.88	8.647
367.24	8.725
367.59	8.759
367.95	8.755
368.30	8.765
368.66	8.767
369.01	8.806
369.37	8.899
369.72	9.009
370.08	9.094
370.43	9.118
370.78	9.147
371.14	9.118
371.49	9.194
371.85	9.208
372.20	9.241
372.56	9.310
372.91	9.378
373.26	9.342
373.62	9.315
373.97	9.312
374.33	9.303
374.68	9.318
375.03	9.386
375.39	9.344
375.74	9.372
376.10	9.424
376.45	9.453
376.80	9.443
377.16	9.472
377.51	9.488
377.87	9.536
378.22	9.567
378.57	9.605
378.93	9.657
379.28	9.697
379.63	9.756
379.99	9.792
380.34	9.809
380.70	9.845
381.05	9.875
381.40	9.956
381.76	10.027
382.11	10.093
382.46	10.130
382.82	10.153
383.17	10.197
383.52	10.200
383.88	10.212
384.23	10.235
384.58	10.247
384.94	10.256
385.29	10.253
385.64	10.244
385.99	10.222
386.35	10.264
386.70	10.264
387.05	10.276
387.41	10.297
387.76	10.298
388.11	10.310
388.47	10.307
388.82	10.360
389.17	10.399
389.52	10.431
389.88	10.471
390.23	10.472
390.58	10.519
390.93	10.562
391.29	10.617
391.64	10.678
391.99	10.769
392.34	10.866
392.70	10.886
393.05	10.879
393.40	10.903
393.75	10.921
394.11	10.949
394.46	10.913
394.81	10.942
395.16	10.908
395.52	10.909
395.87	10.900
396.22	10.881
396.57	10.897
396.92	10.924
397.28	10.907
397.63	10.895
397.98	10.901
398.33	10.958
398.68	10.922
399.04	10.932
399.39	10.921
399.74	10.907
400.09	10.931
400.44	10.940
400.80	10.952
401.15	10.983
401.50	11.025
401.85	11.064
402.20	11.049
402.55	11.107
402.90	11.154
403.26	11.187
403.61	11.200
403.96	11.190
404.31	11.208
404.66	11.229
405.01	11.209
405.36	11.241
405.72	11.231
406.07	11.249
406.42	11.220
406.77	11.222
407.12	11.242
407.47	11.265
407.82	11.294
408.17	11.318
408.53	11.329
408.88	11.372
409.23	11.361
409.58	11.349
409.93	11.387
410.28	11.414
410.63	11.423
410.98	11.447
411.33	11.467
411.68	11.498
412.03	11.532
412.38	11.531
412.73	11.584
413.09	11.613
413.44	11.669
413.79	11.681
414.14	11.714
414.49	11.735
414.84	11.745
415.19	11.760
415.54	11.801
415.89	11.771
416.24	11.830
416.59	11.849
416.94	11.871
417.29	11.897
417.64	11.925
417.99	11.957
418.34	11.996
418.69	12.017
419.04	12.043
419.39	12.050
419.74	12.095
420.09	12.110
420.44	12.134
420.79	12.159
421.14	12.175
421.49	12.192
421.84	12.197
422.19	12.224
422.54	12.233
422.89	12.262
423.24	12.286
423.59	12.303
423.94	12.317
424.29	12.325
424.64	12.354
424.99	12.362
425.34	12.374
425.68	12.406
426.03	12.391
426.38	12.429
426.73	12.450
427.08	12.455
427.43	12.483
427.78	12.478
428.13	12.467
428.48	12.472
428.83	12.479
429.18	12.480
429.53	12.502
429.87	12.526
430.22	12.518
430.57	12.530
430.92	12.535
431.27	12.560
431.62	12.583
431.97	12.612
432.32	12.616
432.67	12.623
433.01	12.649
433.36	12.645
433.71	12.664
434.06	12.700
434.41	12.676
434.76	12.700
435.11	12.713
435.45	12.738
435.80	12.762
436.15	12.777
436.50	12.797
436.85	12.821
437.20	12.830
437.54	12.843
437.89	12.853
438.24	12.886
438.59	12.909
438.94	12.930
439.29	12.937
439.63	12.951
439.98	12.977
440.33	13.007
440.68	13.026
441.03	13.052
441.37	13.058
441.72	13.097
442.07	13.129
442.42	13.153
442.76	13.180
443.11	13.211
443.46	13.244
443.81	13.257
444.16	13.290
444.50	13.304
444.85	13.332
445.20	13.381
445.55	13.400
445.89	13.422
446.24	13.454
446.59	13.463
446.94	13.480
447.28	13.490
447.63	13.507
447.98	13.510
448.32	13.541
448.67	13.560
449.02	13.561
449.37	13.565
449.71	13.604
450.06	13.629
450.41	13.662
450.75	13.677
451.10	13.687
451.45	13.715
451.79	13.746
452.14	13.778
452.49	13.822
452.84	13.836
453.18	13.863
453.53	13.846
453.88	13.858
454.22	13.863
454.57	13.886
454.92	13.912
455.26	13.944
455.61	13.991
455.95	14.023
456.30	14.028
456.65	14.091
456.99	14.127
457.34	14.179
457.69	14.190
458.03	14.216
458.38	14.254
458.73	14.269
459.07	14.293
459.42	14.296
459.76	14.294
460.11	14.313
460.46	14.290
460.80	14.301
461.15	14.296
461.49	14.287
461.84	14.309
462.19	14.326
462.53	14.366
462.88	14.418
463.22	14.429
463.57	14.458
463.91	14.464
464.26	14.520
464.61	14.540
464.95	14.554
465.30	14.579
465.64	14.604
465.99	14.613
466.33	14.646
466.68	14.640
467.02	14.668
467.37	14.693
467.71	14.720
468.06	14.736
468.41	14.747
468.75	14.770
469.10	14.816
469.44	14.833
469.79	14.844
470.13	14.819
470.48	14.825
470.82	14.854
471.17	14.868
471.51	14.885
471.86	14.888
472.20	14.896
472.55	14.907
472.89	14.934
473.23	14.949
473.58	14.974
473.92	14.992
474.27	15.016
474.61	15.019
474.96	15.026
475.30	15.057
475.65	15.072
475.99	15.096
476.34	15.120
476.68	15.103
477.02	15.100
477.37	15.114
477.71	15.176
478.06	15.229
478.40	15.314
478.75	15.473
479.09	15.637
479.43	15.849
479.78	16.151
480.12	16.459
480.47	16.790
480.81	17.131
481.15	17.461
481.50	17.798
481.84	18.185
482.19	18.603
482.53	18.941
482.87	19.170
483.22	19.214
483.56	19.047
483.90	18.776
484.25	18.440
484.59	18.036
484.94	17.693
485.28	17.376
485.62	17.011
485.97	16.604
486.31	16.271
486.65	16.027
487.00	15.950
487.34	16.002
487.68	16.132
488.03	16.306
488.37	16.504
488.71	16.626
489.06	16.664
489.40	16.674
489.74	16.685
490.09	16.664
490.43	16.659
490.77	16.636
491.11	16.604
491.46	16.584
491.80	16.544
492.14	16.519
492.49	16.490
492.83	16.469
493.17	16.459
493.51	16.422
493.86	16.409
494.20	16.412
494.54	16.420
494.88	16.438
495.23	16.477
495.57	16.509
495.91	16.561
496.25	16.607
496.60	16.637
496.94	16.645
497.28	16.685
497.62	16.710
497.97	16.719
498.31	16.757
498.65	16.808
498.99	16.819
499.33	16.862
499.68	16.894
500.02	16.926
500.36	16.965
500.70	17.031
501.04	17.050
501.39	17.093
501.73	17.141
502.07	17.189
502.41	17.247
502.75	17.310
503.09	17.356
503.44	17.413
503.78	17.449
504.12	17.500
504.46	17.526
504.80	17.592
505.14	17.656
505.49	17.711
505.83	17.767
506.17	17.804
506.51	17.882
506.85	17.949
507.19	17.994
507.53	18.057
507.87	18.112
508.22	18.169
508.56	18.226
508.90	18.274
509.24	18.318
509.58	18.363
509.92	18.438
510.26	18.463
510.60	18.516
510.94	18.592
511.28	18.632
511.63	18.705
511.97	18.785
512.31	18.843
512.65	18.886
512.99	18.959
513.33	19.074
513.67	19.163
514.01	19.288
514.35	19.384
514.69	19.453
515.03	19.566
515.37	19.650
515.71	19.733
516.05	19.811
516.39	19.905
516.73	19.986
517.07	20.016
517.41	20.057
517.75	20.090
518.09	20.130
518.43	20.181
518.77	20.175
519.11	20.199
519.45	20.224
519.79	20.281
520.13	20.320
520.47	20.369
520.81	20.428
521.15	20.486
521.49	20.545
521.83	20.625
522.17	20.709
522.51	20.836
522.85	20.938
523.19	21.067
523.53	21.239
523.87	21.450
524.21	21.661
524.55	21.875
524.89	22.077
525.23	22.272
525.57	22.426
525.91	22.591
526.25	22.743
526.58	22.890
526.92	22.997
527.26	23.049
527.60	23.054
527.94	23.050
528.28	23.021
528.62	22.984
528.96	22.937
529.30	22.913
529.64	22.846
529.97	22.774
530.31	22.699
530.65	22.647
530.99	22.632
531.33	22.659
531.67	22.668
532.01	22.714
532.35	22.733
532.68	22.741
533.02	22.717
533.36	22.730
533.70	22.738
534.04	22.730
534.38	22.729
534.71	22.715
535.05	22.685
535.39	22.686
535.73	22.645
536.07	22.649
536.41	22.677
536.74	22.743
537.08	22.783
537.42	22.865
537.76	22.940
538.10	23.029
538.43	23.131
538.77	23.250
539.11	23.344
539.45	23.442
539.79	23.530
540.12	23.587
540.46	23.637
540.80	23.664
541.14	23.643
541.47	23.624
541.81	23.609
542.15	23.582
542.49	23.516
542.82	23.464
543.16	23.403
543.50	23.346
543.84	23.302
544.17	23.238
544.51	23.235
544.85	23.236
545.18	23.281
545.52	23.286
545.86	23.291
546.20	23.333
546.53	23.347
546.87	23.356
547.21	23.359
547.54	23.373
547.88	23.399
548.22	23.384
548.55	23.408
548.89	23.412
549.23	23.433
549.56	23.415
549.90	23.437
550.24	23.452
550.57	23.471
550.91	23.492
551.25	23.517
551.58	23.545
551.92	23.561
552.26	23.579
552.59	23.613
552.93	23.631
553.27	23.697
553.60	23.711
553.94	23.740
554.27	23.756
554.61	23.807
554.95	23.827
555.28	23.841
555.62	23.886
555.95	23.926
556.29	23.958
556.63	23.970
556.96	23.992
557.30	23.977
557.63	23.962
557.97	23.981
558.31	23.942
558.64	23.960
558.98	23.985
559.31	24.035
559.65	24.051
559.98	24.053
560.32	24.070
560.65	24.076
560.99	24.081
561.33	24.136
561.66	24.173
562.00	24.211
562.33	24.218
562.67	24.242
563.00	24.202
563.34	24.234
563.67	24.239
564.01	24.275
564.34	24.300
564.68	24.366
565.01	24.362
565.35	24.389
565.68	24.405
566.02	24.391
566.35	24.391
566.69	24.429
567.02	24.449
567.36	24.457
567.69	24.466
568.03	24.480
568.36	24.492
568.69	24.509
569.03	24.521
569.36	24.513
569.70	24.569
570.03	24.589
570.37	24.587
570.70	24.585
571.04	24.590
571.37	24.588
571.70	24.579
572.04	24.574
572.37	24.578
572.71	24.544
573.04	24.577
573.37	24.585
573.71	24.616
574.04	24.633
574.38	24.653
574.71	24.705
575.04	24.699
575.38	24.700
575.71	24.663
576.05	24.663
576.38	24.731
576.71	24.718
577.05	24.704
577.38	24.667
577.71	24.663
578.05	24.617
578.38	24.570
578.71	24.579
579.05	24.582
579.38	24.601
579.71	24.615
580.05	24.551
580.38	24.594
580.71	24.608
581.05	24.608
581.38	24.610
581.71	24.634
582.05	24.622
582.38	24.632
582.71	24.627
583.04	24.684
583.38	24.686
583.71	24.721
584.04	24.708
584.38	24.704
584.71	24.715
585.04	24.728
585.37	24.738
585.71	24.811
586.04	24.786
586.37	24.859
586.70	24.842
587.04	24.854
587.37	24.855
587.70	24.880
588.03	24.894
588.37	24.907
588.70	24.939
589.03	24.921
589.36	24.880
589.69	24.927
590.03	24.908
590.36	24.906
590.69	24.883
591.02	24.889
591.35	24.906
591.69	24.900
592.02	24.921
592.35	24.896
592.68	24.930
593.01	24.920
593.35	24.929
593.68	24.940
594.01	24.952
594.34	24.947
594.67	24.946
595.00	24.900
595.34	24.897
595.67	24.879
596.00	24.899
596.33	24.874
596.66	24.885
596.99	24.854
597.32	24.854
597.65	24.828
597.99	24.850
598.32	24.870
598.65	24.863
598.98	24.865
599.31	24.867
599.64	24.857
599.97	24.850
600.30	24.845
600.63	24.868
600.96	24.871
601.30	24.922
601.63	24.939
601.96	24.962
602.29	25.011
602.62	24.998
602.95	25.028
603.28	25.018
603.61	25.057
603.94	25.068
604.27	25.116
604.60	25.117
604.93	25.111
605.26	25.109
605.59	25.094
605.92	25.077
606.25	25.113
606.58	25.136
606.91	25.114
607.24	25.139
607.57	25.142
607.90	25.124
608.23	25.090
608.56	25.065
608.89	25.083
609.22	25.076
609.55	25.071
609.88	25.048
610.21	24.999
610.54	25.030
610.87	24.967
611.20	24.973
611.53	24.947
611.86	24.944
612.19	24.959
612.52	24.927
612.85	24.893
613.18	24.892
613.51	24.862
613.84	24.843
614.17	24.831
614.49	24.872
614.82	24.848
615.15	24.809
615.48	24.817
615.81	24.787
616.14	24.788
616.47	24.804
616.80	24.787
617.13	24.793
617.46	24.799
617.78	24.786
618.11	24.783
618.44	24.804
618.77	24.816
619.10	24.794
619.43	24.829
619.76	24.800
620.09	24.811
620.41	24.848
620.74	24.891
621.07	24.927
621.40	24.968
621.73	24.920
622.06	24.922
622.38	24.921
622.71	24.946
623.04	25.006
623.37	25.063
623.70	25.096
624.02	25.133
624.35	25.122
624.68	25.129
625.01	25.146
625.34	25.232
625.66	25.258
625.99	25.296
626.32	25.326
626.65	25.297
626.98	25.307
627.30	25.294
627.63	25.284
627.96	25.295
628.29	25.250
628.61	25.274
628.94	25.238
629.27	25.220
629.60	25.185
629.92	25.206
630.25	25.162
630.58	25.126
630.91	25.156
631.23	25.155
631.56	25.204
631.89	25.237
632.21	25.198
632.54	25.200
632.87	25.218
633.19	25.250
633.52	25.237
633.85	25.246
634.18	25.244
634.50	25.219
634.83	25.192
635.16	25.117
635.48	25.087
635.81	25.091
636.14	25.077
636.46	25.088
636.79	25.042
637.11	24.961
637.44	24.947
637.77	24.908
638.09	24.840
638.42	24.756
638.75	24.722
639.07	24.707
639.40	24.626
639.73	24.568
640.05	24.456
640.38	24.453
640.70	24.447
641.03	24.397
641.36	24.402
