OOIBase32 Version 2.0.0.6 Data File
++++++++++++++++++++++++++++++++++++
Date: 01-23-2012, 23:25:09
User: Valued Ocean Optics Customer
Spectrometer Serial Number: USB2E2917
Spectrometer Channel: Master
Integration Time (msec): 5
Spectra Averaged: 10
Boxcar Smoothing: 5
Correct for Electrical Dark: Enabled
Time Normalized: Disabled
Dual-beam Reference: Disabled
Reference Channel: Master
Temperature: Not acquired
Spectrometer Type: S2000
ADC Type: USB2000
Number of Pixels in File: 2048
Graph Title: 
>>>>>Begin Spectral Data<<<<<
180.30	0.000
180.67	0.000
181.03	-127.868
181.40	288.439
181.77	-5088.838
182.14	46.560
182.51	-258.989
182.88	153.289
183.25	0.492
183.62	-77.102
183.99	164.855
184.36	11.129
184.73	309.675
185.10	89.226
185.46	-153.746
185.83	-109.396
186.20	786.237
186.57	55.626
186.94	54.869
187.31	92.470
187.68	179.480
188.05	135.814
188.42	181.390
188.78	413.974
189.15	1290.230
189.52	-303.003
189.89	-67.002
190.26	-16.635
190.63	-5.722
191.00	8.303
191.37	17.022
191.73	23.364
192.10	18.843
192.47	14.620
192.84	25.165
193.21	32.802
193.58	26.242
193.94	13.459
194.31	7.546
194.68	9.822
195.05	-1.008
195.42	7.347
195.79	-22.441
196.15	-12.715
196.52	-33.518
196.89	-52.142
197.26	-51.983
197.63	-29.155
198.00	-9.107
198.36	-6.105
198.73	-15.719
199.10	-6.394
199.47	-16.812
199.84	-12.594
200.20	-22.040
200.57	-9.245
200.94	-15.064
201.31	-12.913
201.68	-29.477
202.04	-34.025
202.41	-41.795
202.78	-50.104
203.15	-43.367
203.51	-39.769
203.88	-36.494
204.25	-31.288
204.62	-50.006
204.98	-50.691
205.35	-59.911
205.72	-60.533
206.09	-62.106
206.46	-136.039
206.82	-110.699
207.19	-114.486
207.56	-188.659
207.92	-161.965
208.29	-185.180
208.66	-115.103
209.03	-96.512
209.39	-62.542
209.76	-44.091
210.13	-66.233
210.50	-38.114
210.86	-39.575
211.23	-49.438
211.60	-23.457
211.96	-11.135
212.33	5.951
212.70	3.754
213.07	-5.692
213.43	-33.512
213.80	-30.769
214.17	-16.287
214.53	-8.808
214.90	-6.515
215.27	-7.600
215.63	-11.126
216.00	-20.388
216.37	-24.990
216.74	-33.853
217.10	-23.661
217.47	-16.172
217.84	-18.192
218.20	-23.596
218.57	-18.379
218.94	-15.267
219.30	-17.934
219.67	-20.039
220.04	-11.675
220.40	-12.859
220.77	-15.418
221.13	-12.577
221.50	-12.577
221.87	-17.439
222.23	-13.499
222.60	-17.986
222.97	-20.168
223.33	-14.688
223.70	-9.715
224.07	-8.873
224.43	-7.546
224.80	-4.107
225.16	-8.757
225.53	-10.291
225.90	-8.767
226.26	-5.675
226.63	-3.019
226.99	-0.803
227.36	0.048
227.73	0.050
228.09	-1.192
228.46	-0.750
228.82	-0.436
229.19	1.427
229.56	3.476
229.92	5.561
230.29	4.922
230.65	3.435
231.02	2.455
231.38	0.058
231.75	1.073
232.12	0.465
232.48	-0.772
232.85	-1.793
233.21	-1.984
233.58	-4.872
233.94	-6.130
234.31	-6.373
234.68	-6.018
235.04	-6.096
235.41	-5.177
235.77	-3.971
236.14	-2.055
236.50	-0.929
236.87	-0.447
237.23	-0.026
237.60	0.091
237.96	0.086
238.33	-0.269
238.69	-0.655
239.06	-0.349
239.42	0.562
239.79	-0.343
240.15	-0.733
240.52	-0.404
240.88	-0.074
241.25	0.279
241.61	1.036
241.98	1.115
242.34	1.297
242.71	1.851
243.07	2.059
243.44	1.822
243.80	1.637
244.17	1.910
244.53	1.620
244.90	1.660
245.26	1.447
245.63	1.170
245.99	1.066
246.36	1.034
246.72	1.088
247.09	0.893
247.45	0.951
247.81	1.358
248.18	1.218
248.54	1.387
248.91	1.223
249.27	1.360
249.64	1.605
250.00	1.577
250.36	1.491
250.73	0.968
251.09	0.985
251.46	0.865
251.82	0.772
252.19	0.910
252.55	0.906
252.91	1.440
253.28	1.826
253.64	1.225
254.01	1.716
254.37	1.828
254.73	2.402
255.10	2.790
255.46	3.303
255.83	3.366
256.19	3.221
256.55	3.049
256.92	2.867
257.28	2.551
257.65	2.785
258.01	2.684
258.37	2.638
258.74	2.415
259.10	2.178
259.46	1.907
259.83	1.749
260.19	1.640
260.55	1.605
260.92	1.471
261.28	1.443
261.64	1.467
262.01	1.526
262.37	1.629
262.73	1.827
263.10	2.008
263.46	2.144
263.82	1.931
264.19	1.856
264.55	1.595
264.91	1.610
265.28	1.650
265.64	1.620
266.00	1.517
266.37	1.459
266.73	1.451
267.09	1.360
267.46	1.107
267.82	0.867
268.18	1.099
268.54	1.403
268.91	1.541
269.27	1.685
269.63	1.730
270.00	1.819
270.36	1.911
270.72	1.995
271.08	2.020
271.45	2.063
271.81	2.146
272.17	2.095
272.53	2.043
272.90	1.979
273.26	2.029
273.62	1.950
273.98	1.730
274.35	1.634
274.71	1.573
275.07	1.587
275.43	1.686
275.80	1.935
276.16	2.009
276.52	1.919
276.88	1.976
277.25	1.710
277.61	1.527
277.97	1.663
278.33	1.881
278.69	1.848
279.06	1.768
279.42	1.748
279.78	1.745
280.14	1.721
280.50	1.869
280.87	1.875
281.23	2.030
281.59	2.214
281.95	2.216
282.31	2.148
282.68	2.028
283.04	2.106
283.40	2.117
283.76	2.025
284.12	2.056
284.48	2.074
284.85	1.942
285.21	1.824
285.57	1.711
285.93	1.632
286.29	1.400
286.65	1.548
287.02	1.748
287.38	1.741
287.74	1.750
288.10	1.636
288.46	1.588
288.82	1.500
289.18	1.588
289.54	1.652
289.91	1.891
290.27	2.087
290.63	2.175
290.99	2.006
291.35	2.101
291.71	2.380
292.07	2.356
292.43	2.441
292.79	2.468
293.16	2.441
293.52	2.533
293.88	2.464
294.24	2.508
294.60	2.441
294.96	2.342
295.32	2.365
295.68	2.268
296.04	2.303
296.40	2.246
296.76	2.372
297.12	2.407
297.49	2.347
297.85	2.280
298.21	2.258
298.57	2.099
298.93	2.204
299.29	2.098
299.65	2.074
300.01	2.117
300.37	2.214
300.73	2.213
301.09	2.069
301.45	2.075
301.81	2.149
302.17	2.133
302.53	2.158
302.89	2.052
303.25	2.120
303.61	2.095
303.97	1.947
304.33	1.807
304.69	1.775
305.05	1.884
305.41	1.764
305.77	1.749
306.13	1.799
306.49	1.917
306.85	2.086
307.21	2.155
307.57	2.123
307.93	2.254
308.29	2.416
308.65	2.454
309.01	2.450
309.37	2.547
309.73	2.494
310.09	2.593
310.45	2.632
310.81	2.576
311.17	2.452
311.53	2.393
311.89	2.401
312.25	2.295
312.61	2.350
312.96	2.435
313.32	2.490
313.68	2.491
314.04	2.315
314.40	2.250
314.76	2.074
315.12	1.947
315.48	2.092
315.84	1.975
316.20	1.938
316.56	1.773
316.92	1.707
317.27	1.562
317.63	1.565
317.99	1.492
318.35	1.440
318.71	1.621
319.07	1.768
319.43	1.641
319.79	1.778
320.15	1.814
320.50	1.989
320.86	1.914
321.22	1.940
321.58	1.931
321.94	1.899
322.30	1.899
322.66	1.856
323.01	1.828
323.37	1.921
323.73	1.755
324.09	1.636
324.45	1.614
324.81	1.617
325.17	1.709
325.52	1.705
325.88	1.716
326.24	1.728
326.60	1.738
326.96	1.798
327.31	1.683
327.67	1.712
328.03	1.739
328.39	1.658
328.75	1.787
329.11	1.811
329.46	1.901
329.82	2.018
330.18	1.992
330.54	2.035
330.90	1.961
331.25	2.044
331.61	2.177
331.97	2.199
332.33	2.208
332.68	2.172
333.04	2.089
333.40	1.928
333.76	1.888
334.11	1.924
334.47	1.855
334.83	1.793
335.19	1.771
335.54	1.757
335.90	1.810
336.26	1.814
336.62	1.767
336.97	1.752
337.33	1.738
337.69	1.783
338.05	1.726
338.40	1.673
338.76	1.735
339.12	1.714
339.48	1.626
339.83	1.589
340.19	1.534
340.55	1.552
340.90	1.526
341.26	1.550
341.62	1.443
341.97	1.454
342.33	1.489
342.69	1.586
343.04	1.664
343.40	1.711
343.76	1.621
344.12	1.642
344.47	1.665
344.83	1.726
345.19	1.797
345.54	1.839
345.90	1.833
346.26	1.919
346.61	1.862
346.97	1.788
347.32	1.743
347.68	1.825
348.04	1.768
348.39	1.673
348.75	1.660
349.11	1.671
349.46	1.681
349.82	1.733
350.18	1.674
350.53	1.672
350.89	1.671
351.24	1.670
351.60	1.675
351.96	1.789
352.31	1.814
352.67	1.857
353.02	1.756
353.38	1.703
353.74	1.686
354.09	1.620
354.45	1.610
354.80	1.645
355.16	1.701
355.52	1.709
355.87	1.637
356.23	1.661
356.58	1.672
356.94	1.779
357.29	1.838
357.65	1.851
358.00	1.903
358.36	1.907
358.72	1.877
359.07	1.870
359.43	1.881
359.78	1.929
360.14	1.908
360.49	1.834
360.85	1.807
361.20	1.797
361.56	1.716
361.91	1.705
362.27	1.727
362.62	1.735
362.98	1.754
363.33	1.712
363.69	1.663
364.04	1.717
364.40	1.770
364.75	1.770
365.11	1.747
365.46	1.763
365.82	1.773
366.17	1.736
366.53	1.744
366.88	1.705
367.24	1.719
367.59	1.729
367.95	1.692
368.30	1.639
368.66	1.605
369.01	1.646
369.37	1.692
369.72	1.724
370.08	1.724
370.43	1.751
370.78	1.744
371.14	1.740
371.49	1.727
371.85	1.697
372.20	1.731
372.56	1.746
372.91	1.709
373.26	1.693
373.62	1.612
373.97	1.646
374.33	1.613
374.68	1.671
375.03	1.665
375.39	1.702
375.74	1.715
376.10	1.700
376.45	1.737
376.80	1.772
377.16	1.779
377.51	1.868
377.87	1.875
378.22	1.834
378.57	1.799
378.93	1.833
379.28	1.850
379.63	1.871
379.99	1.877
380.34	1.873
380.70	1.881
381.05	1.928
381.40	1.890
381.76	1.881
382.11	1.943
382.46	1.939
382.82	1.942
383.17	1.915
383.52	1.889
383.88	1.891
384.23	1.868
384.58	1.832
384.94	1.773
385.29	1.801
385.64	1.789
385.99	1.798
386.35	1.840
386.70	1.848
387.05	1.823
387.41	1.825
387.76	1.836
388.11	1.831
388.47	1.854
388.82	1.891
389.17	1.858
389.52	1.874
389.88	1.872
390.23	1.854
390.58	1.875
390.93	1.913
391.29	1.941
391.64	1.956
391.99	2.009
392.34	2.031
392.70	2.015
393.05	2.027
393.40	2.021
393.75	2.017
394.11	2.018
394.46	1.976
394.81	1.960
395.16	1.919
395.52	1.887
395.87	1.839
396.22	1.838
396.57	1.820
396.92	1.809
397.28	1.784
397.63	1.748
397.98	1.756
398.33	1.732
398.68	1.716
399.04	1.733
399.39	1.690
399.74	1.687
400.09	1.642
400.44	1.662
400.80	1.657
401.15	1.652
401.50	1.647
401.85	1.641
402.20	1.653
402.55	1.669
402.90	1.651
403.26	1.667
403.61	1.657
403.96	1.653
404.31	1.640
404.66	1.663
405.01	1.638
405.36	1.652
405.72	1.633
406.07	1.614
406.42	1.598
406.77	1.601
407.12	1.642
407.47	1.673
407.82	1.687
408.17	1.692
408.53	1.657
408.88	1.665
409.23	1.661
409.58	1.638
409.93	1.661
410.28	1.659
410.63	1.628
410.98	1.605
411.33	1.583
411.68	1.589
412.03	1.623
412.38	1.619
412.73	1.647
413.09	1.674
413.44	1.707
413.79	1.719
414.14	1.757
414.49	1.830
414.84	1.851
415.19	1.881
415.54	1.902
415.89	1.897
416.24	1.937
416.59	1.953
416.94	1.954
417.29	1.978
417.64	1.985
417.99	2.002
418.34	1.996
418.69	2.005
419.04	2.015
419.39	2.029
419.74	2.035
420.09	2.049
420.44	2.065
420.79	2.070
421.14	2.065
421.49	2.082
421.84	2.075
422.19	2.087
422.54	2.079
422.89	2.068
423.24	2.052
423.59	2.040
423.94	2.019
424.29	2.006
424.64	2.007
424.99	2.004
425.34	1.962
425.68	1.937
426.03	1.890
426.38	1.895
426.73	1.885
427.08	1.882
427.43	1.888
427.78	1.899
428.13	1.889
428.48	1.903
428.83	1.903
429.18	1.917
429.53	1.937
429.87	1.948
430.22	1.931
430.57	1.949
430.92	1.946
431.27	1.951
431.62	1.944
431.97	1.955
432.32	1.942
432.67	1.927
433.01	1.925
433.36	1.913
433.71	1.926
434.06	1.924
434.41	1.903
434.76	1.905
435.11	1.903
435.45	1.919
435.80	1.909
436.15	1.905
436.50	1.927
436.85	1.939
437.20	1.950
437.54	1.944
437.89	1.959
438.24	1.979
438.59	1.982
438.94	1.982
439.29	1.948
439.63	1.961
439.98	1.961
440.33	1.933
440.68	1.935
441.03	1.933
441.37	1.934
441.72	1.933
442.07	1.922
442.42	1.929
442.76	1.948
443.11	1.972
443.46	1.987
443.81	1.993
444.16	2.020
444.50	2.019
444.85	2.019
445.20	2.024
445.55	2.021
445.89	2.029
446.24	2.010
446.59	1.972
446.94	1.962
447.28	1.920
447.63	1.918
447.98	1.900
448.32	1.890
448.67	1.866
449.02	1.834
449.37	1.802
449.71	1.788
450.06	1.778
450.41	1.800
450.75	1.780
451.10	1.786
451.45	1.759
451.79	1.738
452.14	1.730
452.49	1.740
452.84	1.753
453.18	1.765
453.53	1.753
453.88	1.754
454.22	1.746
454.57	1.758
454.92	1.774
455.26	1.790
455.61	1.840
455.95	1.867
456.30	1.875
456.65	1.900
456.99	1.932
457.34	1.952
457.69	1.975
458.03	1.982
458.38	2.003
458.73	2.003
459.07	2.005
459.42	1.973
459.76	1.941
460.11	1.913
460.46	1.884
460.80	1.852
461.15	1.822
461.49	1.798
461.84	1.795
462.19	1.759
462.53	1.746
462.88	1.742
463.22	1.739
463.57	1.760
463.91	1.774
464.26	1.789
464.61	1.785
464.95	1.782
465.30	1.780
465.64	1.780
465.99	1.791
466.33	1.796
466.68	1.787
467.02	1.780
467.37	1.767
467.71	1.761
468.06	1.741
468.41	1.726
468.75	1.731
469.10	1.734
469.44	1.715
469.79	1.687
470.13	1.663
470.48	1.658
470.82	1.654
471.17	1.661
471.51	1.662
471.86	1.655
472.20	1.657
472.55	1.655
472.89	1.643
473.23	1.630
473.58	1.642
473.92	1.639
474.27	1.631
474.61	1.629
474.96	1.613
475.30	1.617
475.65	1.613
475.99	1.623
476.34	1.629
476.68	1.614
477.02	1.630
477.37	1.622
477.71	1.644
478.06	1.687
478.40	1.752
478.75	1.836
479.09	1.921
479.43	2.020
479.78	2.119
480.12	2.207
480.47	2.309
480.81	2.388
481.15	2.481
481.50	2.566
481.84	2.645
482.19	2.717
482.53	2.780
482.87	2.825
483.22	2.833
483.56	2.802
483.90	2.751
484.25	2.684
484.59	2.616
484.94	2.546
485.28	2.479
485.62	2.405
485.97	2.329
486.31	2.261
486.65	2.202
487.00	2.168
487.34	2.165
487.68	2.170
488.03	2.180
488.37	2.197
488.71	2.198
489.06	2.188
489.40	2.188
489.74	2.177
490.09	2.160
490.43	2.141
490.77	2.118
491.11	2.071
491.46	2.033
491.80	2.004
492.14	1.960
492.49	1.935
492.83	1.892
493.17	1.838
493.51	1.793
493.86	1.749
494.20	1.718
494.54	1.700
494.88	1.706
495.23	1.718
495.57	1.720
495.91	1.736
496.25	1.741
496.60	1.755
496.94	1.759
497.28	1.761
497.62	1.758
497.97	1.749
498.31	1.757
498.65	1.755
498.99	1.743
499.33	1.744
499.68	1.744
500.02	1.741
500.36	1.735
500.70	1.736
501.04	1.728
501.39	1.734
501.73	1.743
502.07	1.740
502.41	1.739
502.75	1.767
503.09	1.783
503.44	1.801
503.78	1.804
504.12	1.813
504.46	1.837
504.80	1.869
505.14	1.894
505.49	1.913
505.83	1.926
506.17	1.966
506.51	1.976
506.85	1.991
507.19	1.995
507.53	2.016
507.87	2.044
508.22	2.050
508.56	2.058
508.90	2.056
509.24	2.065
509.58	2.076
509.92	2.076
510.26	2.083
510.60	2.089
510.94	2.091
511.28	2.088
511.63	2.081
511.97	2.104
512.31	2.116
512.65	2.142
512.99	2.154
513.33	2.200
513.67	2.233
514.01	2.287
514.35	2.336
514.69	2.394
515.03	2.457
515.37	2.525
515.71	2.564
516.05	2.609
516.39	2.634
516.73	2.665
517.07	2.673
517.41	2.688
517.75	2.695
518.09	2.688
518.43	2.687
518.77	2.662
519.11	2.641
519.45	2.605
519.79	2.594
520.13	2.592
520.47	2.603
520.81	2.616
521.15	2.645
521.49	2.663
521.83	2.702
522.17	2.744
522.51	2.817
522.85	2.887
523.19	2.982
523.53	3.060
523.87	3.174
524.21	3.277
524.55	3.375
524.89	3.453
525.23	3.538
525.57	3.598
525.91	3.655
526.25	3.702
526.58	3.755
526.92	3.796
527.26	3.834
527.60	3.836
527.94	3.837
528.28	3.820
528.62	3.794
528.96	3.766
529.30	3.758
529.64	3.739
529.97	3.730
530.31	3.698
530.65	3.677
530.99	3.652
531.33	3.646
531.67	3.641
532.01	3.646
532.35	3.653
532.68	3.649
533.02	3.638
533.36	3.634
533.70	3.613
534.04	3.600
534.38	3.571
534.71	3.559
535.05	3.536
535.39	3.516
535.73	3.505
536.07	3.514
536.41	3.529
536.74	3.549
537.08	3.567
537.42	3.607
537.76	3.658
538.10	3.711
538.43	3.750
538.77	3.800
539.11	3.837
539.45	3.879
539.79	3.916
540.12	3.944
540.46	3.961
540.80	3.974
541.14	3.964
541.47	3.934
541.81	3.924
542.15	3.903
542.49	3.879
542.82	3.843
543.16	3.813
543.50	3.769
543.84	3.729
544.17	3.696
544.51	3.677
544.85	3.648
545.18	3.655
545.52	3.636
545.86	3.612
546.20	3.589
546.53	3.583
546.87	3.542
547.21	3.522
547.54	3.498
547.88	3.477
548.22	3.446
548.55	3.438
548.89	3.414
549.23	3.401
549.56	3.388
549.90	3.399
550.24	3.409
550.57	3.419
550.91	3.414
551.25	3.432
551.58	3.431
551.92	3.415
552.26	3.411
552.59	3.396
552.93	3.401
553.27	3.429
553.60	3.437
553.94	3.410
554.27	3.407
554.61	3.425
554.95	3.399
555.28	3.393
555.62	3.403
555.95	3.431
556.29	3.447
556.63	3.425
556.96	3.411
557.30	3.398
557.63	3.411
557.97	3.414
558.31	3.374
558.64	3.369
558.98	3.391
559.31	3.415
559.65	3.402
559.98	3.389
560.32	3.400
560.65	3.402
560.99	3.398
561.33	3.403
561.66	3.427
562.00	3.470
562.33	3.505
562.67	3.514
563.00	3.521
563.34	3.554
563.67	3.592
564.01	3.611
564.34	3.624
564.68	3.635
565.01	3.658
565.35	3.652
565.68	3.639
566.02	3.638
566.35	3.618
566.69	3.591
567.02	3.592
567.36	3.575
567.69	3.575
568.03	3.604
568.36	3.608
568.69	3.601
569.03	3.614
569.36	3.640
569.70	3.645
570.03	3.675
570.37	3.698
570.70	3.677
571.04	3.683
571.37	3.674
571.70	3.656
572.04	3.645
572.37	3.628
572.71	3.599
573.04	3.575
573.37	3.564
573.71	3.548
574.04	3.523
574.38	3.511
574.71	3.500
575.04	3.485
575.38	3.460
575.71	3.444
576.05	3.446
576.38	3.443
576.71	3.419
577.05	3.395
577.38	3.358
577.71	3.336
578.05	3.320
578.38	3.298
578.71	3.280
579.05	3.246
579.38	3.220
579.71	3.192
580.05	3.160
580.38	3.162
580.71	3.128
581.05	3.128
581.38	3.133
581.71	3.129
582.05	3.118
582.38	3.129
582.71	3.129
583.04	3.146
583.38	3.129
583.71	3.144
584.04	3.152
584.38	3.168
584.71	3.186
585.04	3.217
585.37	3.207
585.71	3.220
586.04	3.208
586.37	3.233
586.70	3.243
587.04	3.278
587.37	3.296
587.70	3.299
588.03	3.298
588.37	3.294
588.70	3.269
589.03	3.282
589.36	3.285
589.69	3.291
590.03	3.301
590.36	3.276
590.69	3.245
591.02	3.219
591.35	3.196
591.69	3.214
592.02	3.196
592.35	3.204
592.68	3.228
593.01	3.218
593.35	3.222
593.68	3.222
594.01	3.253
594.34	3.260
594.67	3.268
595.00	3.278
595.34	3.249
595.67	3.252
596.00	3.235
596.33	3.178
596.66	3.163
596.99	3.123
597.32	3.069
597.65	3.035
597.99	2.986
598.32	2.940
598.65	2.894
598.98	2.876
599.31	2.860
599.64	2.864
599.97	2.875
600.30	2.869
600.63	2.899
600.96	2.942
601.30	2.945
601.63	2.980
601.96	3.018
602.29	3.048
602.62	3.045
602.95	3.039
603.28	3.030
603.61	3.020
603.94	3.003
604.27	3.000
604.60	2.950
604.93	2.935
605.26	2.915
605.59	2.889
605.92	2.868
606.25	2.875
606.58	2.869
606.91	2.840
607.24	2.846
607.57	2.853
607.90	2.828
608.23	2.817
608.56	2.787
608.89	2.752
609.22	2.713
609.55	2.660
609.88	2.606
610.21	2.555
610.54	2.518
610.87	2.467
611.20	2.411
611.53	2.372
611.86	2.340
612.19	2.321
612.52	2.303
612.85	2.301
613.18	2.294
613.51	2.283
613.84	2.249
614.17	2.228
614.49	2.249
614.82	2.239
615.15	2.234
615.48	2.239
615.81	2.225
616.14	2.221
616.47	2.195
616.80	2.173
617.13	2.170
617.46	2.179
617.78	2.184
618.11	2.142
618.44	2.118
618.77	2.065
619.10	2.044
619.43	2.014
619.76	1.982
620.09	1.995
620.41	1.974
620.74	1.977
621.07	2.000
621.40	2.022
621.73	2.056
622.06	2.106
622.38	2.147
622.71	2.189
623.04	2.242
623.37	2.303
623.70	2.317
624.02	2.384
624.35	2.430
624.68	2.449
625.01	2.494
625.34	2.520
625.66	2.540
625.99	2.586
626.32	2.577
626.65	2.560
626.98	2.560
627.30	2.539
627.63	2.513
627.96	2.467
628.29	2.451
628.61	2.400
628.94	2.346
629.27	2.306
629.60	2.224
629.92	2.226
630.25	2.208
630.58	2.177
630.91	2.161
631.23	2.106
631.56	2.109
631.89	2.066
632.21	2.061
632.54	2.042
632.87	1.994
633.19	1.988
633.52	1.955
633.85	1.937
634.18	1.886
634.50	1.866
634.83	1.881
635.16	1.821
635.48	1.790
635.81	1.742
636.14	1.694
636.46	1.681
636.79	1.646
637.11	1.595
637.44	1.520
637.77	1.497
638.09	1.434
638.42	1.375
638.75	1.345
639.07	1.313
639.40	1.271
639.73	1.246
640.05	1.217
640.38	1.214
640.70	1.160
641.03	1.194
641.36	1.178
641.68	1.190
642.01	1.202
642.33	1.214
642.66	1.196
642.98	1.189
643.31	1.178
643.64	1.172
643.96	1.183
644.29	1.215
644.61	1.193
644.94	1.215
645.26	1.227
645.59	1.266
645.91	1.281
646.24	1.323
646.56	1.349
646.89	1.374
647.22	1.380
647.54	1.388
647.87	1.402
648.19	1.402
648.52	1.356
648.84	1.340
649.17	1.280
649.49	1.290
649.82	1.295
650.14	1.294
650.47	1.290
650.79	1.325
651.11	1.293
651.44	1.276
651.76	1.294
652.09	1.364
652.41	1.407
652.74	1.429
653.06	1.440
653.39	1.452
653.71	1.495
654.04	1.504
654.36	1.523
654.68	1.562
655.01	1.596
655.33	1.639
655.66	1.610
655.98	1.604
656.30	1.612
656.63	1.634
656.95	1.643
657.28	1.633
657.60	1.628
