OOIBase32 Version 2.0.0.6 Data File
++++++++++++++++++++++++++++++++++++
Date: 01-23-2012, 23:25:44
User: Valued Ocean Optics Customer
Spectrometer Serial Number: USB2E2917
Spectrometer Channel: Master
Integration Time (msec): 5
Spectra Averaged: 10
Boxcar Smoothing: 5
Correct for Electrical Dark: Enabled
Time Normalized: Disabled
Dual-beam Reference: Disabled
Reference Channel: Master
Temperature: Not acquired
Spectrometer Type: S2000
ADC Type: USB2000
Number of Pixels in File: 2048
Graph Title: 
>>>>>Begin Spectral Data<<<<<
180.30	0.000
180.67	0.000
181.03	12.635
181.40	80.815
181.77	-25155.122
182.14	10.243
182.51	-362.936
182.88	262.953
183.25	0.647
183.62	26.452
183.99	22.507
184.36	25.494
184.73	-23.000
185.10	95.821
185.46	-362.936
185.83	153.151
186.20	11.432
186.57	287.016
186.94	86.068
187.31	-11.637
187.68	-18.945
188.05	-112.697
188.42	-174.868
188.78	-239.120
189.15	-509.362
189.52	117.135
189.89	28.809
190.26	5.024
190.63	17.808
191.00	16.026
191.37	9.690
191.73	15.782
192.10	10.370
192.47	7.386
192.84	11.173
193.21	13.923
193.58	6.092
193.94	11.984
194.31	17.728
194.68	11.742
195.05	11.806
195.42	11.829
195.79	5.180
196.15	5.581
196.52	-2.228
196.89	-13.966
197.26	-7.762
197.63	19.260
198.00	30.252
198.36	25.340
198.73	-5.338
199.10	-19.574
199.47	-27.466
199.84	-24.901
200.20	-27.369
200.57	-28.030
200.94	-27.514
201.31	-34.555
201.68	-32.411
202.04	-41.979
202.41	-42.133
202.78	-34.523
203.15	-58.106
203.51	-39.922
203.88	-38.927
204.25	-33.362
204.62	-50.480
204.98	-64.252
205.35	-69.744
205.72	-75.719
206.09	-52.680
206.46	-101.615
206.82	-73.697
207.19	-42.398
207.56	-79.943
207.92	-57.630
208.29	-44.188
208.66	3.762
209.03	16.285
209.39	41.257
209.76	24.663
210.13	-0.775
210.50	11.998
210.86	22.541
211.23	12.635
211.60	19.049
211.96	21.542
212.33	10.539
212.70	-4.873
213.07	-7.599
213.43	-47.653
213.80	-36.154
214.17	-4.272
214.53	-1.562
214.90	2.335
215.27	0.762
215.63	3.492
216.00	-4.231
216.37	2.937
216.74	-6.224
217.10	-11.118
217.47	-3.657
217.84	1.364
218.20	-2.843
218.57	-4.503
218.94	-9.760
219.30	-16.091
219.67	-28.978
220.04	-28.704
220.40	-30.105
220.77	-26.363
221.13	-20.672
221.50	-13.415
221.87	-12.449
222.23	-15.055
222.60	-25.251
222.97	-21.021
223.33	-9.271
223.70	-0.983
224.07	-0.369
224.43	-0.190
224.80	-0.468
225.16	-0.626
225.53	-2.921
225.90	-5.621
226.26	-3.165
226.63	0.421
226.99	0.138
227.36	0.543
227.73	1.042
228.09	1.905
228.46	2.508
228.82	4.797
229.19	4.661
229.56	4.947
229.92	6.735
230.29	7.452
230.65	7.071
231.02	6.301
231.38	3.463
231.75	1.742
232.12	0.551
232.48	-0.816
232.85	-4.075
233.21	-3.455
233.58	-6.497
233.94	-7.939
234.31	-10.346
234.68	-9.335
235.04	-8.476
235.41	-6.748
235.77	-4.754
236.14	-3.866
236.50	-1.913
236.87	-0.615
237.23	0.412
237.60	1.609
237.96	1.707
238.33	1.137
238.69	-0.025
239.06	0.128
239.42	0.710
239.79	-0.250
240.15	-0.464
240.52	-0.547
240.88	-0.356
241.25	-0.961
241.61	-0.346
241.98	-0.285
242.34	0.233
242.71	0.692
243.07	0.957
243.44	0.888
243.80	1.260
244.17	1.568
244.53	1.402
244.90	1.449
245.26	1.444
245.63	1.149
245.99	1.209
246.36	0.984
246.72	1.159
247.09	0.737
247.45	0.594
247.81	0.789
248.18	0.645
248.54	0.726
248.91	0.418
249.27	0.745
249.64	0.949
250.00	1.399
250.36	1.774
250.73	1.549
251.09	1.976
251.46	2.229
251.82	1.794
252.19	1.622
252.55	1.056
252.91	1.143
253.28	0.930
253.64	0.503
254.01	0.011
254.37	0.125
254.73	0.217
255.10	0.508
255.46	0.903
255.83	1.241
256.19	1.388
256.55	1.466
256.92	1.750
257.28	1.698
257.65	1.894
258.01	1.929
258.37	1.890
258.74	1.885
259.10	1.559
259.46	1.242
259.83	1.038
260.19	0.873
260.55	0.987
260.92	0.486
261.28	0.329
261.64	0.222
262.01	0.167
262.37	-0.029
262.73	-0.341
263.10	-0.063
263.46	0.137
263.82	0.438
264.19	0.676
264.55	0.457
264.91	0.653
265.28	0.650
265.64	0.509
266.00	0.437
266.37	0.561
266.73	0.730
267.09	0.875
267.46	0.829
267.82	0.637
268.18	0.554
268.54	0.794
268.91	0.674
269.27	0.813
269.63	1.069
270.00	1.186
270.36	1.130
270.72	1.319
271.08	1.221
271.45	1.177
271.81	1.317
272.17	1.332
272.53	1.212
272.90	1.402
273.26	1.334
273.62	1.098
273.98	0.832
274.35	0.863
274.71	0.892
275.07	0.994
275.43	1.061
275.80	1.002
276.16	0.931
276.52	0.878
276.88	0.845
277.25	0.565
277.61	0.592
277.97	0.722
278.33	0.975
278.69	0.607
279.06	0.474
279.42	0.527
279.78	0.456
280.14	0.403
280.50	0.518
280.87	0.662
281.23	1.023
281.59	1.133
281.95	1.126
282.31	1.117
282.68	1.184
283.04	1.372
283.40	1.510
283.76	1.559
284.12	1.877
284.48	1.866
284.85	1.856
285.21	1.773
285.57	1.625
285.93	1.763
286.29	1.521
286.65	1.572
287.02	1.635
287.38	1.511
287.74	1.439
288.10	1.261
288.46	1.409
288.82	1.225
289.18	1.208
289.54	1.397
289.91	1.393
290.27	1.623
290.63	1.797
290.99	1.590
291.35	1.556
291.71	1.697
292.07	1.593
292.43	1.443
292.79	1.586
293.16	1.681
293.52	1.715
293.88	1.762
294.24	1.678
294.60	1.489
294.96	1.588
295.32	1.669
295.68	1.698
296.04	1.807
296.40	1.852
296.76	2.024
297.12	1.973
297.49	1.805
297.85	1.646
298.21	1.572
298.57	1.607
298.93	1.669
299.29	1.497
299.65	1.399
300.01	1.388
300.37	1.460
300.73	1.427
301.09	1.521
301.45	1.737
301.81	1.982
302.17	2.153
302.53	2.040
302.89	1.771
303.25	1.918
303.61	2.046
303.97	1.915
304.33	1.827
304.69	1.782
305.05	1.617
305.41	1.592
305.77	1.474
306.13	1.380
306.49	1.464
306.85	1.688
307.21	1.813
307.57	1.806
307.93	1.857
308.29	1.995
308.65	1.916
309.01	2.052
309.37	2.055
309.73	2.020
310.09	2.182
310.45	2.291
310.81	2.356
311.17	2.190
311.53	2.166
311.89	2.287
312.25	2.189
312.61	2.201
312.96	2.114
313.32	2.052
313.68	2.099
314.04	1.959
314.40	1.890
314.76	1.762
315.12	1.828
315.48	1.767
315.84	1.585
316.20	1.583
316.56	1.629
316.92	1.655
317.27	1.584
317.63	1.577
317.99	1.451
318.35	1.470
318.71	1.562
319.07	1.604
319.43	1.719
319.79	1.881
320.15	1.884
320.50	1.946
320.86	1.918
321.22	1.951
321.58	1.957
321.94	1.990
322.30	1.999
322.66	1.900
323.01	1.765
323.37	1.767
323.73	1.720
324.09	1.667
324.45	1.611
324.81	1.585
325.17	1.627
325.52	1.583
325.88	1.629
326.24	1.685
326.60	1.683
326.96	1.771
327.31	1.680
327.67	1.630
328.03	1.661
328.39	1.635
328.75	1.715
329.11	1.789
329.46	1.867
329.82	1.848
330.18	1.738
330.54	1.772
330.90	1.756
331.25	1.744
331.61	1.801
331.97	1.767
332.33	1.814
332.68	1.838
333.04	1.787
333.40	1.639
333.76	1.682
334.11	1.755
334.47	1.753
334.83	1.712
335.19	1.666
335.54	1.672
335.90	1.794
336.26	1.743
336.62	1.641
336.97	1.599
337.33	1.621
337.69	1.591
338.05	1.574
338.40	1.587
338.76	1.581
339.12	1.660
339.48	1.620
339.83	1.532
340.19	1.553
340.55	1.693
340.90	1.643
341.26	1.696
341.62	1.687
341.97	1.672
342.33	1.696
342.69	1.740
343.04	1.707
343.40	1.630
343.76	1.564
344.12	1.554
344.47	1.529
344.83	1.635
345.19	1.682
345.54	1.733
345.90	1.797
346.26	1.794
346.61	1.826
346.97	1.895
347.32	2.001
347.68	2.021
348.04	2.042
348.39	1.940
348.75	1.954
349.11	1.894
349.46	1.809
349.82	1.787
350.18	1.783
350.53	1.774
350.89	1.746
351.24	1.706
351.60	1.796
351.96	1.842
352.31	1.884
352.67	1.895
353.02	1.918
353.38	1.987
353.74	2.061
354.09	2.025
354.45	2.066
354.80	2.076
355.16	2.128
355.52	2.132
355.87	2.066
356.23	2.081
356.58	2.111
356.94	2.151
357.29	2.198
357.65	2.133
358.00	2.171
358.36	2.172
358.72	2.173
359.07	2.167
359.43	2.215
359.78	2.305
360.14	2.340
360.49	2.310
360.85	2.354
361.20	2.323
361.56	2.336
361.91	2.373
362.27	2.343
362.62	2.406
362.98	2.422
363.33	2.401
363.69	2.379
364.04	2.384
364.40	2.405
364.75	2.370
365.11	2.369
365.46	2.343
365.82	2.375
366.17	2.386
366.53	2.364
366.88	2.406
367.24	2.436
367.59	2.442
367.95	2.477
368.30	2.463
368.66	2.495
369.01	2.530
369.37	2.628
369.72	2.666
370.08	2.736
370.43	2.751
370.78	2.726
371.14	2.676
371.49	2.734
371.85	2.743
372.20	2.794
372.56	2.792
372.91	2.808
373.26	2.765
373.62	2.676
373.97	2.677
374.33	2.672
374.68	2.712
375.03	2.798
375.39	2.753
375.74	2.761
376.10	2.802
376.45	2.840
376.80	2.853
377.16	2.850
377.51	2.894
377.87	2.949
378.22	2.961
378.57	2.944
378.93	2.966
379.28	3.024
379.63	3.003
379.99	3.043
380.34	3.069
380.70	3.089
381.05	3.182
381.40	3.239
381.76	3.248
382.11	3.302
382.46	3.380
382.82	3.379
383.17	3.386
383.52	3.451
383.88	3.403
384.23	3.399
384.58	3.423
384.94	3.405
385.29	3.403
385.64	3.415
385.99	3.416
386.35	3.443
386.70	3.453
387.05	3.449
387.41	3.456
387.76	3.459
388.11	3.475
388.47	3.491
388.82	3.503
389.17	3.500
389.52	3.502
389.88	3.526
390.23	3.543
390.58	3.537
390.93	3.564
391.29	3.590
391.64	3.647
391.99	3.693
392.34	3.732
392.70	3.739
393.05	3.769
393.40	3.785
393.75	3.793
394.11	3.810
394.46	3.829
394.81	3.851
395.16	3.843
395.52	3.821
395.87	3.786
396.22	3.782
396.57	3.769
396.92	3.757
397.28	3.759
397.63	3.757
397.98	3.736
398.33	3.752
398.68	3.744
399.04	3.773
399.39	3.755
399.74	3.739
400.09	3.710
400.44	3.723
400.80	3.739
401.15	3.752
401.50	3.769
401.85	3.769
402.20	3.775
402.55	3.809
402.90	3.782
403.26	3.816
403.61	3.818
403.96	3.849
404.31	3.883
404.66	3.891
405.01	3.873
405.36	3.866
405.72	3.885
406.07	3.897
406.42	3.846
406.77	3.857
407.12	3.891
407.47	3.947
407.82	3.946
408.17	3.947
408.53	3.931
408.88	3.947
409.23	3.946
409.58	3.901
409.93	3.907
410.28	3.971
410.63	3.963
410.98	3.941
411.33	3.948
411.68	3.973
412.03	3.997
412.38	4.007
412.73	4.021
413.09	4.068
413.44	4.123
413.79	4.166
414.14	4.178
414.49	4.236
414.84	4.261
415.19	4.280
415.54	4.311
415.89	4.315
416.24	4.374
416.59	4.399
416.94	4.427
417.29	4.446
417.64	4.427
417.99	4.460
418.34	4.478
418.69	4.492
419.04	4.510
419.39	4.533
419.74	4.565
420.09	4.571
420.44	4.587
420.79	4.587
421.14	4.603
421.49	4.639
421.84	4.632
422.19	4.652
422.54	4.666
422.89	4.680
423.24	4.675
423.59	4.679
423.94	4.679
424.29	4.691
424.64	4.706
424.99	4.712
425.34	4.699
425.68	4.709
426.03	4.679
426.38	4.698
426.73	4.686
427.08	4.678
427.43	4.683
427.78	4.706
428.13	4.697
428.48	4.705
428.83	4.714
429.18	4.738
429.53	4.742
429.87	4.758
430.22	4.750
430.57	4.766
430.92	4.784
431.27	4.789
431.62	4.764
431.97	4.784
432.32	4.788
432.67	4.779
433.01	4.781
433.36	4.775
433.71	4.790
434.06	4.785
434.41	4.777
434.76	4.800
435.11	4.814
435.45	4.835
435.80	4.849
436.15	4.860
436.50	4.887
436.85	4.909
437.20	4.922
437.54	4.927
437.89	4.955
438.24	4.968
438.59	4.974
438.94	4.976
439.29	4.982
439.63	4.990
439.98	4.997
440.33	4.977
440.68	4.983
441.03	5.006
441.37	5.043
441.72	5.068
442.07	5.087
442.42	5.095
442.76	5.131
443.11	5.165
443.46	5.193
443.81	5.209
444.16	5.254
444.50	5.265
444.85	5.273
445.20	5.266
445.55	5.274
445.89	5.291
446.24	5.307
446.59	5.283
446.94	5.284
447.28	5.267
447.63	5.269
447.98	5.267
448.32	5.279
448.67	5.291
449.02	5.301
449.37	5.290
449.71	5.295
450.06	5.280
450.41	5.302
450.75	5.308
451.10	5.333
451.45	5.343
451.79	5.338
452.14	5.338
452.49	5.335
452.84	5.338
453.18	5.342
453.53	5.337
453.88	5.355
454.22	5.375
454.57	5.400
454.92	5.382
455.26	5.410
455.61	5.444
455.95	5.483
456.30	5.507
456.65	5.533
456.99	5.568
457.34	5.608
457.69	5.639
458.03	5.660
458.38	5.674
458.73	5.712
459.07	5.721
459.42	5.725
459.76	5.705
460.11	5.708
460.46	5.711
460.80	5.704
461.15	5.691
461.49	5.684
461.84	5.701
462.19	5.696
462.53	5.705
462.88	5.710
463.22	5.724
463.57	5.754
463.91	5.767
464.26	5.783
464.61	5.787
464.95	5.808
465.30	5.816
465.64	5.816
465.99	5.838
466.33	5.841
466.68	5.862
467.02	5.872
467.37	5.868
467.71	5.880
468.06	5.892
468.41	5.895
468.75	5.896
469.10	5.912
469.44	5.903
469.79	5.902
470.13	5.891
470.48	5.877
470.82	5.877
471.17	5.889
471.51	5.891
471.86	5.882
472.20	5.903
472.55	5.919
472.89	5.942
473.23	5.945
473.58	5.952
473.92	5.972
474.27	5.986
474.61	5.992
474.96	6.009
475.30	6.024
475.65	6.019
475.99	6.033
476.34	6.030
476.68	6.023
477.02	6.067
477.37	6.087
477.71	6.129
478.06	6.179
478.40	6.269
478.75	6.358
479.09	6.473
479.43	6.610
479.78	6.769
480.12	6.937
480.47	7.116
480.81	7.265
481.15	7.433
481.50	7.594
481.84	7.766
482.19	7.948
482.53	8.115
482.87	8.220
483.22	8.250
483.56	8.192
483.90	8.084
484.25	7.932
484.59	7.774
484.94	7.622
485.28	7.494
485.62	7.355
485.97	7.185
486.31	7.039
486.65	6.937
487.00	6.912
487.34	6.925
487.68	6.980
488.03	7.056
488.37	7.143
488.71	7.202
489.06	7.219
489.40	7.223
489.74	7.227
490.09	7.224
490.43	7.221
490.77	7.198
491.11	7.192
491.46	7.179
491.80	7.161
492.14	7.131
492.49	7.107
492.83	7.089
493.17	7.057
493.51	7.041
493.86	7.030
494.20	7.028
494.54	7.036
494.88	7.058
495.23	7.080
495.57	7.119
495.91	7.164
496.25	7.225
496.60	7.257
496.94	7.289
497.28	7.327
497.62	7.347
497.97	7.376
498.31	7.413
498.65	7.448
498.99	7.456
499.33	7.486
499.68	7.503
500.02	7.516
500.36	7.540
500.70	7.578
501.04	7.587
501.39	7.619
501.73	7.635
502.07	7.662
502.41	7.684
502.75	7.753
503.09	7.778
503.44	7.824
503.78	7.849
504.12	7.883
504.46	7.925
504.80	7.984
505.14	8.038
505.49	8.094
505.83	8.131
506.17	8.189
506.51	8.222
506.85	8.260
507.19	8.300
507.53	8.339
507.87	8.384
508.22	8.424
508.56	8.448
508.90	8.488
509.24	8.534
509.58	8.569
509.92	8.589
510.26	8.609
510.60	8.651
510.94	8.685
511.28	8.719
511.63	8.737
511.97	8.777
512.31	8.828
512.65	8.858
512.99	8.901
513.33	8.977
513.67	9.056
514.01	9.149
514.35	9.215
514.69	9.279
515.03	9.353
515.37	9.449
515.71	9.509
516.05	9.569
516.39	9.611
516.73	9.651
517.07	9.690
517.41	9.722
517.75	9.753
518.09	9.769
518.43	9.792
518.77	9.798
519.11	9.805
519.45	9.819
519.79	9.848
520.13	9.893
520.47	9.933
520.81	9.961
521.15	9.999
521.49	10.046
521.83	10.121
522.17	10.165
522.51	10.248
522.85	10.327
523.19	10.419
523.53	10.528
523.87	10.668
524.21	10.814
524.55	10.968
524.89	11.092
525.23	11.223
525.57	11.333
525.91	11.450
526.25	11.547
526.58	11.639
526.92	11.715
527.26	11.762
527.60	11.778
527.94	11.796
528.28	11.779
528.62	11.771
528.96	11.742
529.30	11.715
529.64	11.710
529.97	11.680
530.31	11.652
530.65	11.636
530.99	11.632
531.33	11.644
531.67	11.637
532.01	11.663
532.35	11.687
532.68	11.698
533.02	11.715
533.36	11.692
533.70	11.698
534.04	11.690
534.38	11.692
534.71	11.686
535.05	11.693
535.39	11.709
535.73	11.713
536.07	11.719
536.41	11.750
536.74	11.787
537.08	11.836
537.42	11.900
537.76	11.955
538.10	12.012
538.43	12.093
538.77	12.152
539.11	12.217
539.45	12.271
539.79	12.330
540.12	12.392
540.46	12.418
540.80	12.453
541.14	12.450
541.47	12.446
541.81	12.442
542.15	12.421
542.49	12.400
542.82	12.369
543.16	12.361
543.50	12.349
543.84	12.300
544.17	12.279
544.51	12.268
544.85	12.273
545.18	12.298
545.52	12.318
545.86	12.332
546.20	12.361
546.53	12.372
546.87	12.375
547.21	12.347
547.54	12.344
547.88	12.358
548.22	12.356
548.55	12.359
548.89	12.361
549.23	12.354
549.56	12.371
549.90	12.398
550.24	12.442
550.57	12.476
550.91	12.517
551.25	12.580
551.58	12.601
551.92	12.626
552.26	12.644
552.59	12.703
552.93	12.740
553.27	12.782
553.60	12.790
553.94	12.781
554.27	12.780
554.61	12.786
554.95	12.787
555.28	12.829
555.62	12.834
555.95	12.884
556.29	12.890
556.63	12.904
556.96	12.896
557.30	12.909
557.63	12.941
557.97	12.944
558.31	12.963
558.64	12.986
558.98	12.999
559.31	13.056
559.65	13.073
559.98	13.090
560.32	13.128
560.65	13.149
560.99	13.187
561.33	13.224
561.66	13.264
562.00	13.294
562.33	13.329
562.67	13.354
563.00	13.364
563.34	13.410
563.67	13.435
564.01	13.461
564.34	13.495
564.68	13.519
565.01	13.524
565.35	13.565
565.68	13.609
566.02	13.593
566.35	13.613
566.69	13.606
567.02	13.616
567.36	13.633
567.69	13.635
568.03	13.690
568.36	13.709
568.69	13.745
569.03	13.749
569.36	13.746
569.70	13.787
570.03	13.812
570.37	13.841
570.70	13.862
571.04	13.875
571.37	13.896
571.70	13.872
572.04	13.873
572.37	13.875
572.71	13.875
573.04	13.891
573.37	13.917
573.71	13.945
574.04	13.975
574.38	13.977
574.71	13.985
575.04	13.993
575.38	14.007
575.71	14.026
576.05	14.038
576.38	14.074
576.71	14.064
577.05	14.058
577.38	14.033
577.71	14.033
578.05	14.020
578.38	14.031
578.71	14.041
579.05	14.032
579.38	14.011
579.71	14.022
580.05	14.006
580.38	14.036
580.71	14.046
581.05	14.075
581.38	14.093
581.71	14.107
582.05	14.114
582.38	14.120
582.71	14.137
583.04	14.198
583.38	14.196
583.71	14.238
584.04	14.277
584.38	14.267
584.71	14.280
585.04	14.307
585.37	14.331
585.71	14.362
586.04	14.376
586.37	14.440
586.70	14.448
587.04	14.472
587.37	14.482
587.70	14.464
588.03	14.517
588.37	14.562
588.70	14.553
589.03	14.588
589.36	14.631
589.69	14.653
590.03	14.623
590.36	14.627
590.69	14.618
591.02	14.605
591.35	14.615
591.69	14.631
592.02	14.625
592.35	14.662
592.68	14.675
593.01	14.674
593.35	14.708
593.68	14.731
594.01	14.752
594.34	14.787
594.67	14.830
595.00	14.870
595.34	14.883
595.67	14.870
596.00	14.882
596.33	14.877
596.66	14.860
596.99	14.863
597.32	14.850
597.65	14.837
597.99	14.828
598.32	14.798
598.65	14.762
598.98	14.740
599.31	14.766
599.64	14.779
599.97	14.767
600.30	14.819
600.63	14.825
600.96	14.879
601.30	14.902
601.63	14.984
601.96	15.028
602.29	15.070
602.62	15.122
602.95	15.142
603.28	15.153
603.61	15.183
603.94	15.178
604.27	15.215
604.60	15.194
604.93	15.222
605.26	15.190
605.59	15.183
605.92	15.181
606.25	15.180
606.58	15.200
606.91	15.197
607.24	15.231
607.57	15.242
607.90	15.232
608.23	15.236
608.56	15.230
608.89	15.227
609.22	15.244
609.55	15.251
609.88	15.230
610.21	15.211
610.54	15.213
610.87	15.171
611.20	15.153
611.53	15.159
611.86	15.183
612.19	15.146
612.52	15.127
612.85	15.154
613.18	15.165
613.51	15.161
613.84	15.138
614.17	15.141
614.49	15.196
614.82	15.178
615.15	15.163
615.48	15.187
615.81	15.193
616.14	15.171
616.47	15.118
616.80	15.094
617.13	15.089
617.46	15.106
617.78	15.158
618.11	15.127
618.44	15.162
618.77	15.184
619.10	15.156
619.43	15.168
619.76	15.214
620.09	15.259
620.41	15.291
620.74	15.359
621.07	15.405
621.40	15.405
621.73	15.457
622.06	15.507
622.38	15.549
622.71	15.621
623.04	15.738
623.37	15.800
623.70	15.846
624.02	15.896
624.35	15.893
624.68	15.924
625.01	15.967
625.34	16.026
625.66	16.050
625.99	16.075
626.32	16.112
626.65	16.114
626.98	16.142
627.30	16.168
627.63	16.179
627.96	16.199
628.29	16.195
628.61	16.184
628.94	16.173
629.27	16.180
629.60	16.184
629.92	16.180
630.25	16.155
630.58	16.144
630.91	16.164
631.23	16.169
631.56	16.191
631.89	16.174
632.21	16.182
632.54	16.180
632.87	16.180
633.19	16.161
633.52	16.136
633.85	16.152
634.18	16.119
634.50	16.080
634.83	16.071
635.16	16.039
635.48	16.023
635.81	15.986
636.14	15.940
636.46	15.880
636.79	15.867
637.11	15.862
637.44	15.814
637.77	15.789
638.09	15.760
638.42	15.731
638.75	15.735
639.07	15.768
639.40	15.763
639.73	15.738
640.05	15.723
640.38	15.742
640.70	15.669
641.03	15.679
641.36	15.676
641.68	15.666
642.01	15.645
642.33	15.577
642.66	15.564
642.98	15.553
643.31	15.617
643.64	15.638
643.96	15.590
644.29	15.580
644.61	15.566
644.94	15.570
645.26	15.566
645.59	15.595
645.91	15.601
646.24	15.582
646.56	15.592
646.89	15.525
647.22	15.519
647.54	15.535
647.87	15.573
648.19	15.541
648.52	15.548
648.84	15.521
649.17	15.466
649.49	15.509
649.82	15.463
