OOIBase32 Version 2.0.0.6 Data File
++++++++++++++++++++++++++++++++++++
Date: 01-23-2012, 23:25:49
User: Valued Ocean Optics Customer
Spectrometer Serial Number: USB2E2917
Spectrometer Channel: Master
Integration Time (msec): 5
Spectra Averaged: 10
Boxcar Smoothing: 5
Correct for Electrical Dark: Enabled
Time Normalized: Disabled
Dual-beam Reference: Disabled
Reference Channel: Master
Temperature: Not acquired
Spectrometer Type: S2000
ADC Type: USB2000
Number of Pixels in File: 2048
Graph Title: 
>>>>>Begin Spectral Data<<<<<
180.30	0.000
180.67	0.000
181.03	84.514
181.40	228.881
181.77	-15030.887
182.14	21.302
182.51	-1526.064
182.88	203.849
183.25	75.468
183.62	103.066
183.99	326.510
184.36	-19.069
184.73	-51.285
185.10	-29.627
185.46	-473.615
185.83	662.903
186.20	-666.508
186.57	-32.186
186.94	85.267
187.31	89.748
187.68	0.003
188.05	129.988
188.42	135.702
188.78	229.851
189.15	860.137
189.52	-171.172
189.89	-46.454
190.26	-40.312
190.63	-13.261
191.00	7.333
191.37	10.921
191.73	11.982
192.10	-1.533
192.47	-1.864
192.84	-10.043
193.21	-3.784
193.58	-12.641
193.94	-29.981
194.31	-28.103
194.68	-31.394
195.05	-45.526
195.42	-41.848
195.79	-50.863
196.15	-63.175
196.52	-89.473
196.89	-84.212
197.26	-105.350
197.63	-72.474
198.00	-41.946
198.36	-48.144
198.73	-74.026
199.10	-58.698
199.47	-51.039
199.84	-57.018
200.20	-48.055
200.57	-40.546
200.94	-36.212
201.31	-22.984
201.68	-37.613
202.04	-40.482
202.41	-38.287
202.78	-22.382
203.15	-20.399
203.51	-22.412
203.88	-30.000
204.25	-12.208
204.62	-16.470
204.98	-28.629
205.35	-42.720
205.72	-37.706
206.09	-46.170
206.46	-108.367
206.82	-112.591
207.19	-118.141
207.56	-189.448
207.92	-135.816
208.29	-160.165
208.66	-98.983
209.03	-86.919
209.39	-43.210
209.76	-38.188
210.13	-70.756
210.50	-50.513
210.86	-55.881
211.23	-62.533
211.60	-33.439
211.96	-52.696
212.33	-42.049
212.70	-66.142
213.07	-76.077
213.43	-135.333
213.80	-120.997
214.17	-69.591
214.53	-40.742
214.90	-28.977
215.27	-15.637
215.63	-20.566
216.00	-7.081
216.37	-6.884
216.74	-3.329
217.10	-1.050
217.47	-0.312
217.84	-3.937
218.20	-11.122
218.57	-14.043
218.94	-10.989
219.30	-15.721
219.67	-12.953
220.04	-10.721
220.40	-15.937
220.77	-21.558
221.13	-14.491
221.50	-15.858
221.87	-11.040
222.23	-10.871
222.60	-16.179
222.97	-19.997
223.33	-15.367
223.70	-13.380
224.07	-11.776
224.43	-8.081
224.80	-4.700
225.16	-7.071
225.53	-3.645
225.90	-5.887
226.26	-4.554
226.63	-1.637
226.99	-0.253
227.36	-0.176
227.73	2.039
228.09	0.250
228.46	1.704
228.82	2.875
229.19	3.680
229.56	2.680
229.92	4.947
230.29	6.504
230.65	5.461
231.02	3.148
231.38	1.109
231.75	-0.710
232.12	0.239
232.48	-2.169
232.85	-3.776
233.21	-3.667
233.58	-5.097
233.94	-5.788
234.31	-7.386
234.68	-7.705
235.04	-5.172
235.41	-3.872
235.77	-4.077
236.14	-3.791
236.50	-1.396
236.87	-0.898
237.23	-0.297
237.60	-0.473
237.96	-0.469
238.33	-0.934
238.69	0.244
239.06	-0.288
239.42	0.360
239.79	-0.325
240.15	-0.330
240.52	-0.906
240.88	0.104
241.25	-0.175
241.61	0.837
241.98	0.839
242.34	1.415
242.71	1.380
243.07	2.140
243.44	1.812
243.80	2.193
244.17	2.341
244.53	2.263
244.90	1.967
245.26	1.958
245.63	1.750
245.99	1.511
246.36	1.272
246.72	1.216
247.09	0.691
247.45	0.809
247.81	1.093
248.18	1.012
248.54	0.990
248.91	0.622
249.27	0.842
249.64	1.294
250.00	1.566
250.36	1.904
250.73	1.661
251.09	2.251
251.46	2.156
251.82	1.939
252.19	2.093
252.55	2.301
252.91	2.619
253.28	2.449
253.64	1.685
254.01	1.658
254.37	1.570
254.73	2.052
255.10	1.937
255.46	2.404
255.83	2.170
256.19	2.131
256.55	1.957
256.92	2.133
257.28	2.157
257.65	2.376
258.01	2.471
258.37	2.555
258.74	2.222
259.10	1.967
259.46	1.566
259.83	1.601
260.19	1.645
260.55	1.877
260.92	1.731
261.28	1.802
261.64	1.776
262.01	1.668
262.37	1.330
262.73	1.729
263.10	1.903
263.46	2.091
263.82	1.891
264.19	1.836
264.55	1.445
264.91	1.514
265.28	1.356
265.64	1.380
266.00	1.263
266.37	1.683
266.73	1.416
267.09	1.660
267.46	1.643
267.82	1.763
268.18	1.921
268.54	2.084
268.91	1.966
269.27	2.117
269.63	2.294
270.00	2.389
270.36	2.140
270.72	2.446
271.08	2.348
271.45	2.405
271.81	2.415
272.17	2.334
272.53	2.153
272.90	2.222
273.26	2.380
273.62	2.142
273.98	2.021
274.35	1.933
274.71	2.024
275.07	2.033
275.43	1.964
275.80	1.971
276.16	1.912
276.52	2.250
276.88	2.148
277.25	1.529
277.61	1.270
277.97	1.252
278.33	1.388
278.69	1.063
279.06	1.076
279.42	1.142
279.78	1.137
280.14	1.132
280.50	1.217
280.87	1.350
281.23	1.569
281.59	1.731
281.95	1.801
282.31	1.989
282.68	1.979
283.04	1.848
283.40	2.001
283.76	2.116
284.12	2.193
284.48	2.213
284.85	2.407
285.21	2.621
285.57	2.753
285.93	2.893
286.29	2.717
286.65	2.889
287.02	3.235
287.38	3.280
287.74	3.175
288.10	3.229
288.46	3.184
288.82	3.064
289.18	2.952
289.54	2.943
289.91	3.059
290.27	3.158
290.63	3.273
290.99	3.335
291.35	3.386
291.71	3.626
292.07	3.560
292.43	3.602
292.79	3.622
293.16	3.596
293.52	3.720
293.88	3.845
294.24	3.930
294.60	3.847
294.96	3.711
295.32	3.693
295.68	3.594
296.04	3.560
296.40	3.573
296.76	3.674
297.12	3.805
297.49	3.694
297.85	3.373
298.21	3.269
298.57	3.134
298.93	3.191
299.29	2.961
299.65	2.987
300.01	2.992
300.37	3.062
300.73	3.176
301.09	3.191
301.45	3.402
301.81	3.708
302.17	3.874
302.53	3.936
302.89	3.895
303.25	4.203
303.61	4.314
303.97	4.157
304.33	4.152
304.69	4.033
305.05	3.994
305.41	3.851
305.77	3.837
306.13	3.751
306.49	3.778
306.85	3.920
307.21	3.897
307.57	3.912
307.93	4.251
308.29	4.351
308.65	4.378
309.01	4.334
309.37	4.357
309.73	4.362
310.09	4.545
310.45	4.738
310.81	4.584
311.17	4.621
311.53	4.555
311.89	4.463
312.25	4.383
312.61	4.312
312.96	4.414
313.32	4.418
313.68	4.273
314.04	4.102
314.40	4.000
314.76	4.137
315.12	4.024
315.48	4.036
315.84	3.899
316.20	3.936
316.56	3.913
316.92	3.808
317.27	3.777
317.63	3.846
317.99	3.818
318.35	3.867
318.71	3.841
319.07	3.950
319.43	4.057
319.79	4.275
320.15	4.180
320.50	4.279
320.86	4.346
321.22	4.399
321.58	4.356
321.94	4.378
322.30	4.252
322.66	4.216
323.01	4.088
323.37	4.033
323.73	3.916
324.09	3.833
324.45	3.805
324.81	3.751
325.17	3.703
325.52	3.713
325.88	3.692
326.24	3.827
326.60	3.805
326.96	3.869
327.31	3.788
327.67	3.799
328.03	3.831
328.39	3.782
328.75	3.803
329.11	3.885
329.46	3.988
329.82	4.080
330.18	3.900
330.54	3.856
330.90	3.807
331.25	3.919
331.61	3.991
331.97	4.080
332.33	4.089
332.68	4.107
333.04	4.051
333.40	3.945
333.76	3.912
334.11	4.017
334.47	4.125
334.83	4.211
335.19	4.088
335.54	4.080
335.90	4.045
336.26	4.078
336.62	3.960
336.97	3.842
337.33	3.806
337.69	3.709
338.05	3.644
338.40	3.488
338.76	3.300
339.12	3.384
339.48	3.306
339.83	3.288
340.19	3.262
340.55	3.402
340.90	3.485
341.26	3.487
341.62	3.482
341.97	3.441
342.33	3.554
342.69	3.656
343.04	3.695
343.40	3.664
343.76	3.621
344.12	3.619
344.47	3.605
344.83	3.657
345.19	3.731
345.54	3.799
345.90	3.877
346.26	3.873
346.61	3.886
346.97	3.837
347.32	3.910
347.68	3.927
348.04	3.871
348.39	3.773
348.75	3.784
349.11	3.775
349.46	3.652
349.82	3.621
350.18	3.518
350.53	3.481
350.89	3.455
351.24	3.381
351.60	3.379
351.96	3.457
352.31	3.462
352.67	3.427
353.02	3.356
353.38	3.440
353.74	3.439
354.09	3.465
354.45	3.492
354.80	3.436
355.16	3.442
355.52	3.419
355.87	3.274
356.23	3.313
356.58	3.308
356.94	3.353
357.29	3.362
357.65	3.377
358.00	3.412
358.36	3.385
358.72	3.435
359.07	3.459
359.43	3.468
359.78	3.550
360.14	3.518
360.49	3.489
360.85	3.491
361.20	3.465
361.56	3.392
361.91	3.405
362.27	3.403
362.62	3.377
362.98	3.353
363.33	3.338
363.69	3.307
364.04	3.381
364.40	3.365
364.75	3.327
365.11	3.264
365.46	3.302
365.82	3.263
366.17	3.234
366.53	3.227
366.88	3.208
367.24	3.216
367.59	3.260
367.95	3.174
368.30	3.184
368.66	3.192
369.01	3.236
369.37	3.234
369.72	3.265
370.08	3.337
370.43	3.347
370.78	3.365
371.14	3.357
371.49	3.334
371.85	3.381
372.20	3.370
372.56	3.384
372.91	3.367
373.26	3.399
373.62	3.343
373.97	3.336
374.33	3.328
374.68	3.323
375.03	3.324
375.39	3.292
375.74	3.262
376.10	3.276
376.45	3.277
376.80	3.287
377.16	3.254
377.51	3.303
377.87	3.294
378.22	3.281
378.57	3.289
378.93	3.339
379.28	3.382
379.63	3.405
379.99	3.414
380.34	3.423
380.70	3.403
381.05	3.455
381.40	3.409
381.76	3.445
382.11	3.473
382.46	3.519
382.82	3.493
383.17	3.495
383.52	3.499
383.88	3.476
384.23	3.457
384.58	3.505
384.94	3.480
385.29	3.510
385.64	3.497
385.99	3.524
386.35	3.526
386.70	3.533
387.05	3.505
387.41	3.502
387.76	3.508
388.11	3.512
388.47	3.480
388.82	3.492
389.17	3.494
389.52	3.495
389.88	3.465
390.23	3.449
390.58	3.453
390.93	3.495
391.29	3.515
391.64	3.574
391.99	3.635
392.34	3.694
392.70	3.674
393.05	3.669
393.40	3.640
393.75	3.642
394.11	3.631
394.46	3.615
394.81	3.609
395.16	3.569
395.52	3.525
395.87	3.448
396.22	3.402
396.57	3.399
396.92	3.392
397.28	3.356
397.63	3.332
397.98	3.292
398.33	3.289
398.68	3.248
399.04	3.262
399.39	3.247
399.74	3.250
400.09	3.264
400.44	3.270
400.80	3.266
401.15	3.286
401.50	3.318
401.85	3.351
402.20	3.338
402.55	3.381
402.90	3.336
403.26	3.343
403.61	3.355
403.96	3.351
404.31	3.352
404.66	3.366
405.01	3.367
405.36	3.349
405.72	3.346
406.07	3.357
406.42	3.317
406.77	3.369
407.12	3.372
407.47	3.386
407.82	3.389
408.17	3.370
408.53	3.387
408.88	3.401
409.23	3.428
409.58	3.399
409.93	3.438
410.28	3.477
410.63	3.465
410.98	3.484
411.33	3.502
411.68	3.526
412.03	3.569
412.38	3.555
412.73	3.568
413.09	3.561
413.44	3.590
413.79	3.581
414.14	3.595
414.49	3.646
414.84	3.663
415.19	3.663
415.54	3.677
415.89	3.671
416.24	3.711
416.59	3.727
416.94	3.756
417.29	3.794
417.64	3.804
417.99	3.823
418.34	3.816
418.69	3.829
419.04	3.846
419.39	3.863
419.74	3.890
420.09	3.904
420.44	3.941
420.79	3.952
421.14	3.955
421.49	3.987
421.84	3.996
422.19	4.024
422.54	4.029
422.89	4.041
423.24	4.046
423.59	4.048
423.94	4.037
424.29	4.021
424.64	4.036
424.99	4.041
425.34	4.011
425.68	4.012
426.03	3.995
426.38	4.013
426.73	4.006
427.08	3.993
427.43	4.011
427.78	4.030
428.13	4.023
428.48	4.008
428.83	4.019
429.18	4.056
429.53	4.074
429.87	4.080
430.22	4.080
430.57	4.100
430.92	4.117
431.27	4.128
431.62	4.131
431.97	4.154
432.32	4.162
432.67	4.174
433.01	4.167
433.36	4.164
433.71	4.175
434.06	4.183
434.41	4.181
434.76	4.206
435.11	4.223
435.45	4.228
435.80	4.236
436.15	4.259
436.50	4.271
436.85	4.302
437.20	4.313
437.54	4.325
437.89	4.338
438.24	4.363
438.59	4.369
438.94	4.362
439.29	4.367
439.63	4.381
439.98	4.384
440.33	4.374
440.68	4.364
441.03	4.368
441.37	4.378
441.72	4.376
442.07	4.382
442.42	4.392
442.76	4.414
443.11	4.439
443.46	4.454
443.81	4.482
444.16	4.517
444.50	4.541
444.85	4.559
445.20	4.577
445.55	4.607
445.89	4.613
446.24	4.631
446.59	4.626
446.94	4.638
447.28	4.645
447.63	4.633
447.98	4.615
448.32	4.611
448.67	4.612
449.02	4.598
449.37	4.583
449.71	4.582
450.06	4.570
450.41	4.600
450.75	4.592
451.10	4.588
451.45	4.584
451.79	4.591
452.14	4.592
452.49	4.590
452.84	4.591
453.18	4.587
453.53	4.593
453.88	4.603
454.22	4.607
454.57	4.620
454.92	4.614
455.26	4.643
455.61	4.672
455.95	4.721
456.30	4.741
456.65	4.779
456.99	4.799
457.34	4.818
457.69	4.835
458.03	4.850
458.38	4.883
458.73	4.927
459.07	4.932
459.42	4.934
459.76	4.914
460.11	4.914
460.46	4.899
460.80	4.896
461.15	4.900
461.49	4.892
461.84	4.880
462.19	4.858
462.53	4.837
462.88	4.839
463.22	4.839
463.57	4.847
463.91	4.856
464.26	4.879
464.61	4.907
464.95	4.902
465.30	4.922
465.64	4.941
465.99	4.961
466.33	4.987
466.68	5.005
467.02	5.019
467.37	5.010
467.71	5.018
468.06	5.023
468.41	5.026
468.75	5.050
469.10	5.057
469.44	5.069
469.79	5.055
470.13	5.035
470.48	5.040
470.82	5.045
471.17	5.075
471.51	5.073
471.86	5.069
472.20	5.087
472.55	5.092
472.89	5.101
473.23	5.093
473.58	5.106
473.92	5.115
474.27	5.115
474.61	5.109
474.96	5.117
475.30	5.134
475.65	5.147
475.99	5.143
476.34	5.144
476.68	5.142
477.02	5.154
477.37	5.175
477.71	5.208
478.06	5.255
478.40	5.321
478.75	5.379
479.09	5.449
479.43	5.558
479.78	5.681
480.12	5.823
480.47	5.983
480.81	6.143
481.15	6.287
481.50	6.441
481.84	6.599
482.19	6.764
482.53	6.915
482.87	7.037
483.22	7.075
483.56	7.041
483.90	6.959
484.25	6.836
484.59	6.692
484.94	6.566
485.28	6.443
485.62	6.312
485.97	6.164
486.31	6.038
486.65	5.936
487.00	5.899
487.34	5.918
487.68	5.951
488.03	6.000
488.37	6.058
488.71	6.101
489.06	6.115
489.40	6.121
489.74	6.119
490.09	6.111
490.43	6.107
490.77	6.082
491.11	6.058
491.46	6.042
491.80	6.016
492.14	5.983
492.49	5.954
492.83	5.919
493.17	5.874
493.51	5.846
493.86	5.805
494.20	5.782
494.54	5.780
494.88	5.784
495.23	5.789
495.57	5.808
495.91	5.841
496.25	5.862
496.60	5.879
496.94	5.893
497.28	5.919
497.62	5.946
497.97	5.950
498.31	5.954
498.65	5.950
498.99	5.948
499.33	5.964
499.68	5.961
500.02	5.969
500.36	5.968
500.70	5.981
501.04	5.978
501.39	5.990
501.73	5.995
502.07	6.006
502.41	6.027
502.75	6.066
503.09	6.066
503.44	6.089
503.78	6.090
504.12	6.106
504.46	6.120
504.80	6.142
505.14	6.173
505.49	6.200
505.83	6.227
506.17	6.245
506.51	6.245
506.85	6.280
507.19	6.297
507.53	6.315
507.87	6.347
508.22	6.371
508.56	6.384
508.90	6.387
509.24	6.408
509.58	6.416
509.92	6.422
510.26	6.433
510.60	6.435
510.94	6.443
511.28	6.453
511.63	6.459
511.97	6.464
512.31	6.474
512.65	6.478
512.99	6.496
513.33	6.541
513.67	6.574
514.01	6.630
514.35	6.672
514.69	6.720
515.03	6.765
515.37	6.806
515.71	6.851
516.05	6.889
516.39	6.936
516.73	6.960
517.07	6.957
517.41	6.969
517.75	6.970
518.09	6.984
518.43	6.978
518.77	6.973
519.11	6.967
519.45	6.950
519.79	6.948
520.13	6.924
520.47	6.912
520.81	6.925
521.15	6.947
521.49	6.967
521.83	7.002
522.17	7.038
522.51	7.092
522.85	7.138
523.19	7.207
523.53	7.274
523.87	7.380
524.21	7.486
524.55	7.602
524.89	7.706
525.23	7.814
525.57	7.892
525.91	7.983
526.25	8.054
526.58	8.131
526.92	8.192
527.26	8.242
527.60	8.269
527.94	8.303
528.28	8.301
528.62	8.290
528.96	8.263
529.30	8.247
529.64	8.222
529.97	8.197
530.31	8.164
530.65	8.144
530.99	8.130
531.33	8.116
531.67	8.089
532.01	8.096
532.35	8.097
532.68	8.115
533.02	8.116
533.36	8.109
533.70	8.113
534.04	8.120
534.38	8.107
534.71	8.108
535.05	8.114
535.39	8.123
535.73	8.119
536.07	8.128
536.41	8.117
536.74	8.131
537.08	8.152
537.42	8.190
537.76	8.233
538.10	8.299
538.43	8.351
538.77	8.406
539.11	8.454
539.45	8.498
539.79	8.548
540.12	8.603
540.46	8.639
540.80	8.683
541.14	8.697
541.47	8.683
541.81	8.671
542.15	8.667
542.49	8.656
542.82	8.648
543.16	8.628
543.50	8.608
543.84	8.590
544.17	8.572
544.51	8.553
544.85	8.543
545.18	8.552
545.52	8.556
545.86	8.549
546.20	8.556
546.53	8.553
546.87	8.561
547.21	8.548
547.54	8.521
547.88	8.529
548.22	8.499
548.55	8.494
548.89	8.508
549.23	8.509
549.56	8.513
549.90	8.528
550.24	8.558
550.57	8.586
550.91	8.607
551.25	8.653
551.58	8.657
551.92	8.693
552.26	8.696
552.59	8.708
552.93	8.748
553.27	8.773
553.60	8.785
553.94	8.763
554.27	8.758
554.61	8.781
554.95	8.773
555.28	8.790
555.62	8.805
555.95	8.838
556.29	8.862
556.63	8.855
556.96	8.880
557.30	8.887
557.63	8.915
557.97	8.950
558.31	8.955
558.64	8.981
558.98	9.006
559.31	9.036
559.65	9.054
559.98	9.074
560.32	9.103
560.65	9.129
560.99	9.156
561.33	9.202
561.66	9.224
562.00	9.281
562.33	9.319
562.67	9.355
563.00	9.372
563.34	9.420
563.67	9.447
564.01	9.470
564.34	9.506
564.68	9.537
565.01	9.554
565.35	9.576
565.68	9.571
566.02	9.605
566.35	9.625
566.69	9.629
567.02	9.653
567.36	9.690
567.69	9.731
568.03	9.737
568.36	9.767
568.69	9.812
569.03	9.853
569.36	9.900
569.70	9.908
570.03	9.949
570.37	9.993
570.70	10.026
571.04	10.057
571.37	10.066
571.70	10.102
572.04	10.137
572.37	10.157
572.71	10.170
573.04	10.186
573.37	10.229
573.71	10.242
574.04	10.267
574.38	10.270
574.71	10.263
575.04	10.295
575.38	10.295
575.71	10.278
576.05	10.276
576.38	10.288
576.71	10.288
577.05	10.308
577.38	10.314
577.71	10.317
578.05	10.315
578.38	10.344
578.71	10.348
579.05	10.369
579.38	10.378
579.71	10.378
580.05	10.362
580.38	10.382
580.71	10.365
581.05	10.370
581.38	10.391
581.71	10.429
582.05	10.443
582.38	10.470
582.71	10.466
583.04	10.522
583.38	10.542
583.71	10.586
584.04	10.608
584.38	10.620
584.71	10.649
585.04	10.698
585.37	10.729
585.71	10.761
586.04	10.780
586.37	10.839
586.70	10.861
587.04	10.898
587.37	10.942
587.70	10.982
588.03	11.015
588.37	11.045
588.70	11.056
589.03	11.060
589.36	11.099
589.69	11.111
590.03	11.123
590.36	11.129
590.69	11.122
591.02	11.106
591.35	11.118
591.69	11.136
592.02	11.147
592.35	11.180
592.68	11.204
593.01	11.205
593.35	11.230
593.68	11.241
594.01	11.277
594.34	11.305
594.67	11.309
595.00	11.307
595.34	11.299
595.67	11.315
596.00	11.333
596.33	11.340
596.66	11.329
596.99	11.327
597.32	11.339
597.65	11.323
597.99	11.292
598.32	11.301
598.65	11.297
598.98	11.325
599.31	11.303
599.64	11.302
599.97	11.309
600.30	11.336
600.63	11.361
600.96	11.383
601.30	11.414
601.63	11.486
601.96	11.545
602.29	11.606
602.62	11.645
602.95	11.711
603.28	11.711
603.61	11.728
603.94	11.746
604.27	11.787
604.60	11.801
604.93	11.816
605.26	11.841
605.59	11.854
605.92	11.870
606.25	11.906
606.58	11.907
606.91	11.924
607.24	11.956
607.57	11.983
607.90	11.995
608.23	11.999
608.56	12.048
608.89	12.051
609.22	12.039
609.55	12.040
609.88	12.023
610.21	12.015
610.54	12.017
610.87	12.007
611.20	12.016
611.53	11.990
611.86	12.015
612.19	11.967
612.52	11.956
612.85	12.005
613.18	12.022
613.51	11.988
613.84	11.977
614.17	12.024
614.49	12.082
614.82	12.048
615.15	12.067
615.48	12.083
615.81	12.094
616.14	12.134
616.47	12.132
616.80	12.119
617.13	12.181
617.46	12.221
617.78	12.224
618.11	12.206
618.44	12.258
618.77	12.277
619.10	12.275
619.43	12.305
619.76	12.283
620.09	12.318
620.41	12.351
620.74	12.373
621.07	12.426
621.40	12.448
621.73	12.499
622.06	12.539
622.38	12.544
622.71	12.563
623.04	12.614
623.37	12.694
623.70	12.711
624.02	12.763
624.35	12.799
624.68	12.826
625.01	12.890
625.34	12.930
625.66	12.973
625.99	13.044
626.32	13.092
626.65	13.113
626.98	13.147
627.30	13.184
627.63	13.205
627.96	13.207
628.29	13.212
628.61	13.198
628.94	13.195
629.27	13.183
629.60	13.162
629.92	13.184
630.25	13.204
630.58	13.184
630.91	13.214
631.23	13.245
631.56	13.281
631.89	13.297
632.21	13.315
632.54	13.340
632.87	13.381
633.19	13.436
633.52	13.453
633.85	13.451
634.18	13.451
634.50	13.427
634.83	13.406
635.16	13.387
635.48	13.360
635.81	13.368
636.14	13.350
636.46	13.334
636.79	13.294
637.11	13.280
637.44	13.258
637.77	13.287
638.09	13.302
638.42	13.323
638.75	13.365
639.07	13.420
639.40	13.462
639.73	13.493
640.05	13.513
640.38	13.603
640.70	13.609
641.03	13.657
641.36	13.620
641.68	13.635
642.01	13.648
642.33	13.709
642.66	13.770
642.98	13.754
643.31	13.784
643.64	13.788
643.96	13.790
644.29	13.869
644.61	13.920
644.94	14.046
645.26	14.110
645.59	14.154
645.91	14.162
646.24	14.192
646.56	14.272
646.89	14.319
647.22	14.343
647.54	14.401
647.87	14.474
648.19	14.508
648.52	14.491
648.84	14.499
649.17	14.512
649.49	14.523
649.82	14.543
650.14	14.548
650.47	14.568
650.79	14.668
651.11	14.649
651.44	14.644
