OOIBase32 Version 2.0.0.6 Data File
++++++++++++++++++++++++++++++++++++
Date: 01-23-2012, 23:26:25
User: Valued Ocean Optics Customer
Spectrometer Serial Number: USB2E2917
Spectrometer Channel: Master
Integration Time (msec): 5
Spectra Averaged: 10
Boxcar Smoothing: 5
Correct for Electrical Dark: Enabled
Time Normalized: Disabled
Dual-beam Reference: Disabled
Reference Channel: Master
Temperature: Not acquired
Spectrometer Type: S2000
ADC Type: USB2000
Number of Pixels in File: 2048
Graph Title: 
>>>>>Begin Spectral Data<<<<<
180.30	0.000
180.67	0.000
181.03	-22.968
181.40	100.292
181.77	-2636.162
182.14	7.119
182.51	-493.030
182.88	-263.095
183.25	66.859
183.62	113.994
183.99	257.758
184.36	65.865
184.73	-188.942
185.10	46.524
185.46	-282.544
185.83	-261.385
186.20	958.678
186.57	168.997
186.94	35.897
187.31	66.371
187.68	57.383
188.05	29.692
188.42	48.449
188.78	118.831
189.15	303.081
189.52	-0.359
189.89	33.116
190.26	21.755
190.63	28.797
191.00	38.345
191.37	44.587
191.73	44.442
192.10	37.396
192.47	30.126
192.84	31.504
193.21	34.697
193.58	26.228
193.94	15.057
194.31	21.264
194.68	12.734
195.05	1.046
195.42	-3.891
195.79	-1.259
196.15	-3.157
196.52	20.628
196.89	14.448
197.26	-3.273
197.63	16.472
198.00	36.073
198.36	39.423
198.73	30.881
199.10	30.646
199.47	17.889
199.84	13.159
200.20	6.393
200.57	-12.508
200.94	-7.320
201.31	6.201
201.68	-9.823
202.04	-18.876
202.41	-19.142
202.78	-15.781
203.15	-26.028
203.51	-21.828
203.88	-19.502
204.25	-5.871
204.62	-2.733
204.98	-11.254
205.35	-20.315
205.72	-7.024
206.09	0.567
206.46	-21.594
206.82	-18.126
207.19	-7.994
207.56	-26.936
207.92	-25.247
208.29	-47.896
208.66	-15.376
209.03	-10.600
209.39	11.476
209.76	14.116
210.13	1.284
210.50	1.502
210.86	-1.085
211.23	-10.789
211.60	-0.960
211.96	-7.582
212.33	11.694
212.70	6.216
213.07	7.923
213.43	-30.127
213.80	-51.353
214.17	-24.280
214.53	-12.887
214.90	4.841
215.27	12.090
215.63	11.729
216.00	11.714
216.37	18.697
216.74	6.439
217.10	5.064
217.47	6.254
217.84	19.532
218.20	14.711
218.57	15.095
218.94	8.713
219.30	6.258
219.67	4.193
220.04	5.563
220.40	-3.394
220.77	-3.527
221.13	-4.416
221.50	5.007
221.87	7.536
222.23	11.763
222.60	6.040
222.97	5.095
223.33	5.437
223.70	8.971
224.07	8.046
224.43	6.281
224.80	8.050
225.16	8.123
225.53	4.252
225.90	-1.727
226.26	-0.813
226.63	2.717
226.99	2.763
227.36	2.715
227.73	4.179
228.09	6.308
228.46	8.210
228.82	8.501
229.19	8.269
229.56	9.333
229.92	12.794
230.29	12.791
230.65	10.762
231.02	9.669
231.38	6.538
231.75	2.089
232.12	-2.945
232.48	-5.738
232.85	-6.808
233.21	-6.472
233.58	-7.959
233.94	-8.193
234.31	-7.034
234.68	-5.249
235.04	-4.551
235.41	-2.206
235.77	0.849
236.14	4.562
236.50	5.909
236.87	5.918
237.23	6.267
237.60	6.084
237.96	5.640
238.33	4.652
238.69	3.499
239.06	3.860
239.42	3.964
239.79	3.029
240.15	2.463
240.52	2.317
240.88	3.082
241.25	3.142
241.61	3.471
241.98	3.053
242.34	2.662
242.71	3.092
243.07	3.164
243.44	3.049
243.80	3.269
244.17	3.282
244.53	3.152
244.90	2.793
245.26	2.647
245.63	2.537
245.99	2.635
246.36	2.680
246.72	2.653
247.09	2.273
247.45	2.500
247.81	2.659
248.18	2.599
248.54	2.730
248.91	2.702
249.27	2.768
249.64	3.123
250.00	3.396
250.36	3.328
250.73	3.265
251.09	3.282
251.46	2.855
251.82	2.539
252.19	2.279
252.55	2.112
252.91	2.268
253.28	2.044
253.64	1.725
254.01	1.827
254.37	2.441
254.73	2.961
255.10	3.569
255.46	4.108
255.83	4.209
256.19	4.312
256.55	4.034
256.92	4.051
257.28	3.918
257.65	3.897
258.01	3.768
258.37	3.630
258.74	3.278
259.10	3.008
259.46	2.680
259.83	2.525
260.19	2.424
260.55	2.614
260.92	2.439
261.28	2.650
261.64	2.650
262.01	2.916
262.37	3.004
262.73	3.113
263.10	3.379
263.46	3.620
263.82	3.756
264.19	3.772
264.55	3.479
264.91	3.432
265.28	3.187
265.64	3.059
266.00	2.736
266.37	2.630
266.73	2.782
267.09	2.840
267.46	2.925
267.82	2.831
268.18	2.888
268.54	2.957
268.91	2.949
269.27	2.981
269.63	3.283
270.00	3.158
270.36	3.274
270.72	3.429
271.08	3.159
271.45	2.813
271.81	2.740
272.17	2.733
272.53	2.764
272.90	2.710
273.26	2.933
273.62	2.671
273.98	2.759
274.35	2.672
274.71	2.565
275.07	2.901
275.43	3.042
275.80	3.246
276.16	3.145
276.52	2.963
276.88	3.063
277.25	2.477
277.61	2.231
277.97	2.173
278.33	2.173
278.69	1.961
279.06	1.827
279.42	2.170
279.78	2.097
280.14	2.267
280.50	2.515
280.87	2.567
281.23	2.819
281.59	3.022
281.95	3.350
282.31	3.413
282.68	3.428
283.04	3.230
283.40	3.048
283.76	3.009
284.12	3.098
284.48	3.086
284.85	3.194
285.21	3.259
285.57	3.260
285.93	3.088
286.29	3.003
286.65	3.144
287.02	3.675
287.38	3.674
287.74	3.753
288.10	3.598
288.46	3.590
288.82	3.537
289.18	3.574
289.54	3.554
289.91	3.521
290.27	3.552
290.63	3.624
290.99	3.312
291.35	3.381
291.71	3.442
292.07	3.339
292.43	3.247
292.79	3.237
293.16	3.239
293.52	3.381
293.88	3.500
294.24	3.601
294.60	3.466
294.96	3.553
295.32	3.586
295.68	3.561
296.04	3.688
296.40	3.793
296.76	3.823
297.12	3.758
297.49	3.639
297.85	3.549
298.21	3.510
298.57	3.448
298.93	3.384
299.29	3.212
299.65	3.192
300.01	3.278
300.37	3.350
300.73	3.373
301.09	3.428
301.45	3.549
301.81	3.571
302.17	3.542
302.53	3.458
302.89	3.381
303.25	3.574
303.61	3.553
303.97	3.367
304.33	3.281
304.69	3.244
305.05	3.183
305.41	3.035
305.77	3.207
306.13	3.301
306.49	3.430
306.85	3.417
307.21	3.422
307.57	3.439
307.93	3.604
308.29	3.758
308.65	3.839
309.01	3.824
309.37	3.882
309.73	3.750
310.09	3.765
310.45	3.906
310.81	4.003
311.17	3.905
311.53	3.976
311.89	3.898
312.25	3.705
312.61	3.642
312.96	3.823
313.32	4.004
313.68	4.071
314.04	4.164
314.40	4.237
314.76	4.238
315.12	4.254
315.48	4.274
315.84	4.303
316.20	4.365
316.56	4.341
316.92	4.288
317.27	4.120
317.63	4.104
317.99	3.999
318.35	3.877
318.71	3.875
319.07	4.003
319.43	4.060
319.79	4.106
320.15	4.256
320.50	4.343
320.86	4.349
321.22	4.361
321.58	4.318
321.94	4.204
322.30	4.192
322.66	4.074
323.01	3.941
323.37	3.785
323.73	3.697
324.09	3.577
324.45	3.668
324.81	3.573
325.17	3.616
325.52	3.637
325.88	3.736
326.24	3.777
326.60	3.925
326.96	4.010
327.31	4.133
327.67	4.182
328.03	4.230
328.39	4.063
328.75	4.165
329.11	4.160
329.46	4.256
329.82	4.252
330.18	4.219
330.54	4.173
330.90	4.183
331.25	4.247
331.61	4.382
331.97	4.351
332.33	4.483
332.68	4.503
333.04	4.550
333.40	4.427
333.76	4.370
334.11	4.428
334.47	4.485
334.83	4.441
335.19	4.364
335.54	4.205
335.90	4.233
336.26	4.127
336.62	4.073
336.97	3.946
337.33	3.918
337.69	3.912
338.05	3.869
338.40	3.902
338.76	3.899
339.12	4.010
339.48	4.062
339.83	4.117
340.19	4.150
340.55	4.254
340.90	4.358
341.26	4.423
341.62	4.438
341.97	4.441
342.33	4.406
342.69	4.446
343.04	4.401
343.40	4.372
343.76	4.301
344.12	4.392
344.47	4.485
344.83	4.563
345.19	4.617
345.54	4.753
345.90	4.761
346.26	4.785
346.61	4.899
346.97	4.889
347.32	5.047
347.68	5.160
348.04	5.160
348.39	5.020
348.75	5.074
349.11	5.137
349.46	5.084
349.82	5.176
350.18	5.247
350.53	5.245
350.89	5.304
351.24	5.279
351.60	5.309
351.96	5.395
352.31	5.560
352.67	5.627
353.02	5.629
353.38	5.720
353.74	5.783
354.09	5.775
354.45	5.849
354.80	5.926
355.16	5.993
355.52	5.993
355.87	5.917
356.23	5.899
356.58	5.900
356.94	6.005
357.29	6.119
357.65	6.170
358.00	6.268
358.36	6.251
358.72	6.288
359.07	6.360
359.43	6.470
359.78	6.577
360.14	6.664
360.49	6.731
360.85	6.758
361.20	6.751
361.56	6.765
361.91	6.796
362.27	6.876
362.62	6.886
362.98	6.917
363.33	6.911
363.69	6.962
364.04	7.040
364.40	7.070
364.75	7.112
365.11	7.180
365.46	7.245
365.82	7.325
366.17	7.371
366.53	7.505
366.88	7.615
367.24	7.728
367.59	7.752
367.95	7.756
368.30	7.777
368.66	7.908
369.01	7.969
369.37	8.020
369.72	8.091
370.08	8.203
370.43	8.303
370.78	8.368
371.14	8.410
371.49	8.514
371.85	8.611
372.20	8.701
372.56	8.688
372.91	8.702
373.26	8.768
373.62	8.793
373.97	8.819
374.33	8.792
374.68	8.829
375.03	8.875
375.39	8.889
375.74	8.939
376.10	9.012
376.45	9.086
376.80	9.215
377.16	9.225
377.51	9.340
377.87	9.412
378.22	9.463
378.57	9.504
378.93	9.577
379.28	9.712
379.63	9.749
379.99	9.842
380.34	9.909
380.70	9.954
381.05	10.087
381.40	10.081
381.76	10.119
382.11	10.188
382.46	10.227
382.82	10.307
383.17	10.325
383.52	10.356
383.88	10.335
384.23	10.353
384.58	10.342
384.94	10.375
385.29	10.430
385.64	10.476
385.99	10.528
386.35	10.602
386.70	10.649
387.05	10.665
387.41	10.737
387.76	10.801
388.11	10.846
388.47	10.910
388.82	10.968
389.17	11.012
389.52	11.056
389.88	11.121
390.23	11.114
390.58	11.137
390.93	11.176
391.29	11.210
391.64	11.233
391.99	11.312
392.34	11.363
392.70	11.367
393.05	11.386
393.40	11.454
393.75	11.466
394.11	11.524
394.46	11.540
394.81	11.579
395.16	11.603
395.52	11.668
395.87	11.676
396.22	11.722
396.57	11.732
396.92	11.765
397.28	11.771
397.63	11.793
397.98	11.813
398.33	11.862
398.68	11.880
399.04	11.928
399.39	11.916
399.74	11.931
400.09	11.948
400.44	12.012
400.80	12.047
401.15	12.068
401.50	12.086
401.85	12.126
402.20	12.136
402.55	12.207
402.90	12.241
403.26	12.317
403.61	12.351
403.96	12.345
404.31	12.388
404.66	12.442
405.01	12.445
405.36	12.483
405.72	12.507
406.07	12.569
406.42	12.576
406.77	12.591
407.12	12.631
407.47	12.679
407.82	12.710
408.17	12.727
408.53	12.736
408.88	12.791
409.23	12.850
409.58	12.868
409.93	12.900
410.28	12.954
410.63	12.947
410.98	12.972
411.33	12.975
411.68	13.057
412.03	13.090
412.38	13.118
412.73	13.186
413.09	13.205
413.44	13.242
413.79	13.251
414.14	13.256
414.49	13.297
414.84	13.292
415.19	13.337
415.54	13.348
415.89	13.351
416.24	13.391
416.59	13.391
416.94	13.409
417.29	13.454
417.64	13.467
417.99	13.511
418.34	13.551
418.69	13.584
419.04	13.597
419.39	13.612
419.74	13.629
420.09	13.658
420.44	13.692
420.79	13.712
421.14	13.731
421.49	13.776
421.84	13.782
422.19	13.811
422.54	13.840
422.89	13.880
423.24	13.918
423.59	13.974
423.94	14.003
424.29	14.047
424.64	14.091
424.99	14.127
425.34	14.147
425.68	14.215
426.03	14.244
426.38	14.295
426.73	14.319
427.08	14.354
427.43	14.403
427.78	14.433
428.13	14.437
428.48	14.486
428.83	14.504
429.18	14.542
429.53	14.552
429.87	14.595
430.22	14.579
430.57	14.608
430.92	14.628
431.27	14.665
431.62	14.681
431.97	14.685
432.32	14.710
432.67	14.734
433.01	14.755
433.36	14.782
433.71	14.799
434.06	14.832
434.41	14.851
434.76	14.895
435.11	14.906
435.45	14.935
435.80	14.977
436.15	14.966
436.50	15.005
436.85	15.042
437.20	15.058
437.54	15.058
437.89	15.083
438.24	15.108
438.59	15.122
438.94	15.123
439.29	15.129
439.63	15.165
439.98	15.211
440.33	15.217
440.68	15.239
441.03	15.276
441.37	15.334
441.72	15.387
442.07	15.427
442.42	15.469
442.76	15.552
443.11	15.600
443.46	15.646
443.81	15.689
444.16	15.728
444.50	15.742
444.85	15.764
445.20	15.790
445.55	15.815
445.89	15.862
446.24	15.900
446.59	15.899
446.94	15.944
447.28	15.964
447.63	15.995
447.98	16.051
448.32	16.106
448.67	16.170
449.02	16.214
449.37	16.258
449.71	16.291
450.06	16.312
450.41	16.361
450.75	16.376
451.10	16.422
451.45	16.439
451.79	16.461
452.14	16.490
452.49	16.500
452.84	16.536
453.18	16.581
453.53	16.579
453.88	16.599
454.22	16.614
454.57	16.647
454.92	16.662
455.26	16.691
455.61	16.744
455.95	16.780
456.30	16.795
456.65	16.829
456.99	16.857
457.34	16.908
457.69	16.946
458.03	16.974
458.38	17.036
458.73	17.075
459.07	17.125
459.42	17.140
459.76	17.161
460.11	17.224
460.46	17.264
460.80	17.301
461.15	17.359
461.49	17.396
461.84	17.447
462.19	17.462
462.53	17.503
462.88	17.546
463.22	17.587
463.57	17.657
463.91	17.676
464.26	17.729
464.61	17.769
464.95	17.771
465.30	17.809
465.64	17.842
465.99	17.883
466.33	17.906
466.68	17.936
467.02	17.978
467.37	18.001
467.71	18.028
468.06	18.038
468.41	18.039
468.75	18.076
469.10	18.090
469.44	18.104
469.79	18.095
470.13	18.124
470.48	18.140
470.82	18.166
471.17	18.196
471.51	18.224
471.86	18.233
472.20	18.287
472.55	18.305
472.89	18.346
473.23	18.393
473.58	18.444
473.92	18.466
474.27	18.463
474.61	18.465
474.96	18.467
475.30	18.489
475.65	18.507
475.99	18.511
476.34	18.544
476.68	18.565
477.02	18.586
477.37	18.585
477.71	18.646
478.06	18.719
478.40	18.838
478.75	18.994
479.09	19.181
479.43	19.421
479.78	19.746
480.12	20.084
480.47	20.460
480.81	20.827
481.15	21.199
481.50	21.581
481.84	22.037
482.19	22.496
482.53	22.902
482.87	23.150
483.22	23.177
483.56	22.979
483.90	22.654
484.25	22.241
484.59	21.785
484.94	21.401
485.28	21.053
485.62	20.633
485.97	20.182
486.31	19.791
486.65	19.544
487.00	19.477
487.34	19.559
487.68	19.734
488.03	19.946
488.37	20.188
488.71	20.344
489.06	20.384
489.40	20.404
489.74	20.421
490.09	20.428
490.43	20.431
490.77	20.438
491.11	20.451
491.46	20.465
491.80	20.465
492.14	20.467
492.49	20.450
492.83	20.449
493.17	20.448
493.51	20.473
493.86	20.465
494.20	20.482
494.54	20.510
494.88	20.549
495.23	20.609
495.57	20.670
495.91	20.729
496.25	20.798
496.60	20.850
496.94	20.918
497.28	20.934
497.62	20.983
497.97	21.008
498.31	21.084
498.65	21.104
498.99	21.136
499.33	21.198
499.68	21.265
500.02	21.326
500.36	21.401
500.70	21.433
501.04	21.485
501.39	21.546
501.73	21.610
502.07	21.633
502.41	21.729
502.75	21.803
503.09	21.861
503.44	21.916
503.78	21.947
504.12	21.991
504.46	22.063
504.80	22.145
505.14	22.214
505.49	22.288
505.83	22.364
506.17	22.418
506.51	22.487
506.85	22.546
507.19	22.604
507.53	22.695
507.87	22.760
508.22	22.828
508.56	22.893
508.90	22.957
509.24	23.023
509.58	23.086
509.92	23.142
510.26	23.199
510.60	23.264
510.94	23.340
511.28	23.390
511.63	23.460
511.97	23.525
512.31	23.589
512.65	23.658
512.99	23.753
513.33	23.877
513.67	23.984
514.01	24.078
514.35	24.177
514.69	24.281
515.03	24.387
515.37	24.480
515.71	24.592
516.05	24.687
516.39	24.781
516.73	24.854
517.07	24.909
517.41	24.958
517.75	25.007
518.09	25.073
518.43	25.119
518.77	25.168
519.11	25.231
519.45	25.268
519.79	25.345
520.13	25.401
520.47	25.470
520.81	25.541
521.15	25.667
521.49	25.768
521.83	25.881
522.17	25.983
522.51	26.088
522.85	26.209
523.19	26.381
523.53	26.579
523.87	26.803
524.21	27.071
524.55	27.285
524.89	27.475
525.23	27.695
525.57	27.876
525.91	28.051
526.25	28.240
526.58	28.418
526.92	28.538
527.26	28.599
527.60	28.628
527.94	28.620
528.28	28.616
528.62	28.603
528.96	28.568
529.30	28.532
529.64	28.500
529.97	28.443
530.31	28.362
530.65	28.332
530.99	28.326
531.33	28.352
531.67	28.398
532.01	28.450
532.35	28.490
532.68	28.527
533.02	28.552
533.36	28.561
533.70	28.578
534.04	28.596
534.38	28.592
534.71	28.622
535.05	28.656
535.39	28.662
535.73	28.682
536.07	28.736
536.41	28.795
536.74	28.879
537.08	28.960
537.42	29.084
537.76	29.188
538.10	29.312
538.43	29.435
538.77	29.550
539.11	29.663
539.45	29.766
539.79	29.869
540.12	29.926
540.46	29.978
540.80	30.031
541.14	30.034
541.47	30.049
541.81	30.056
542.15	30.035
542.49	30.014
542.82	29.988
543.16	29.964
543.50	29.919
543.84	29.923
544.17	29.932
544.51	29.952
544.85	29.971
545.18	30.012
545.52	30.061
545.86	30.118
546.20	30.198
546.53	30.257
546.87	30.313
547.21	30.364
547.54	30.407
547.88	30.474
548.22	30.508
548.55	30.543
548.89	30.611
549.23	30.673
549.56	30.713
549.90	30.749
550.24	30.786
550.57	30.835
550.91	30.898
551.25	30.960
551.58	30.964
551.92	31.024
552.26	31.093
552.59	31.139
552.93	31.164
553.27	31.196
553.60	31.220
553.94	31.260
554.27	31.319
554.61	31.393
554.95	31.436
555.28	31.520
555.62	31.565
555.95	31.633
556.29	31.697
556.63	31.732
556.96	31.789
557.30	31.853
557.63	31.910
557.97	31.945
558.31	31.948
558.64	31.993
558.98	32.020
559.31	32.048
559.65	32.087
559.98	32.101
560.32	32.159
560.65	32.198
560.99	32.232
561.33	32.257
561.66	32.306
562.00	32.355
562.33	32.394
562.67	32.423
563.00	32.478
563.34	32.506
563.67	32.570
564.01	32.612
564.34	32.675
564.68	32.677
565.01	32.737
565.35	32.753
565.68	32.772
566.02	32.768
566.35	32.816
566.69	32.833
567.02	32.863
567.36	32.849
567.69	32.868
568.03	32.888
568.36	32.919
568.69	32.904
569.03	32.954
569.36	32.982
569.70	33.004
570.03	33.034
570.37	33.057
570.70	33.100
571.04	33.132
571.37	33.165
571.70	33.189
572.04	33.247
572.37	33.288
572.71	33.248
573.04	33.303
573.37	33.385
573.71	33.416
574.04	33.474
574.38	33.485
574.71	33.546
575.04	33.573
575.38	33.612
575.71	33.637
576.05	33.685
576.38	33.790
576.71	33.785
577.05	33.804
577.38	33.827
577.71	33.872
578.05	33.936
578.38	33.942
578.71	33.988
579.05	34.060
579.38	34.088
579.71	34.135
580.05	34.140
580.38	34.209
580.71	34.258
581.05	34.290
581.38	34.337
581.71	34.362
582.05	34.398
582.38	34.431
582.71	34.399
583.04	34.450
583.38	34.475
583.71	34.541
584.04	34.550
584.38	34.589
584.71	34.636
585.04	34.618
585.37	34.606
585.71	34.668
586.04	34.680
586.37	34.756
586.70	34.792
587.04	34.828
587.37	34.856
587.70	34.923
588.03	34.962
588.37	35.016
588.70	35.069
589.03	35.118
589.36	35.132
589.69	35.157
590.03	35.146
590.36	35.132
590.69	35.124
591.02	35.137
591.35	35.118
591.69	35.108
592.02	35.096
592.35	35.115
592.68	35.127
593.01	35.117
593.35	35.197
593.68	35.238
594.01	35.282
594.34	35.302
594.67	35.330
595.00	35.355
595.34	35.343
595.67	35.350
596.00	35.371
596.33	35.447
596.66	35.507
596.99	35.468
597.32	35.509
597.65	35.537
597.99	35.583
598.32	35.619
598.65	35.671
598.98	35.760
599.31	35.847
599.64	35.897
599.97	35.883
600.30	35.907
600.63	35.929
600.96	35.923
601.30	35.926
601.63	35.977
601.96	35.987
602.29	36.015
602.62	36.005
602.95	36.023
603.28	36.044
603.61	36.116
603.94	36.157
604.27	36.244
604.60	36.290
604.93	36.351
605.26	36.395
605.59	36.416
605.92	36.410
606.25	36.462
606.58	36.512
606.91	36.485
607.24	36.510
607.57	36.510
607.90	36.535
608.23	36.524
608.56	36.546
608.89	36.557
609.22	36.627
609.55	36.717
609.88	36.741
610.21	36.768
610.54	36.897
610.87	36.913
611.20	36.972
611.53	36.996
611.86	37.081
612.19	37.152
612.52	37.148
612.85	37.188
613.18	37.232
613.51	37.278
613.84	37.300
614.17	37.322
614.49	37.384
614.82	37.407
615.15	37.433
615.48	37.521
615.81	37.536
616.14	37.647
616.47	37.649
616.80	37.691
617.13	37.720
617.46	37.737
617.78	37.773
618.11	37.757
618.44	37.832
618.77	37.877
619.10	37.859
619.43	37.908
619.76	37.895
620.09	37.938
620.41	37.990
620.74	38.006
621.07	38.081
621.40	38.102
621.73	38.133
622.06	38.189
622.38	38.206
622.71	38.250
623.04	38.302
623.37	38.354
623.70	38.418
624.02	38.395
624.35	38.491
624.68	38.509
625.01	38.531
625.34	38.615
625.66	38.622
625.99	38.644
626.32	38.732
626.65	38.790
626.98	38.861
627.30	38.902
627.63	38.971
627.96	38.977
628.29	39.015
628.61	39.095
628.94	39.102
629.27	39.142
629.60	39.245
629.92	39.241
630.25	39.251
630.58	39.219
630.91	39.243
631.23	39.312
631.56	39.390
631.89	39.398
632.21	39.412
632.54	39.463
632.87	39.517
633.19	39.491
633.52	39.525
633.85	39.522
634.18	39.538
634.50	39.550
634.83	39.480
635.16	39.460
635.48	39.474
635.81	39.487
636.14	39.466
636.46	39.450
636.79	39.444
637.11	39.410
637.44	39.393
637.77	39.461
638.09	39.500
638.42	39.544
638.75	39.454
639.07	39.495
639.40	39.448
639.73	39.445
640.05	39.386
640.38	39.408
640.70	39.372
641.03	39.335
641.36	39.250
641.68	39.201
642.01	39.166
