OOIBase32 Version 2.0.0.6 Data File
++++++++++++++++++++++++++++++++++++
Date: 01-23-2012, 23:23:27
User: Valued Ocean Optics Customer
Spectrometer Serial Number: USB2E2917
Spectrometer Channel: Master
Integration Time (msec): 5
Spectra Averaged: 10
Boxcar Smoothing: 5
Correct for Electrical Dark: Enabled
Time Normalized: Disabled
Dual-beam Reference: Disabled
Reference Channel: Master
Temperature: Not acquired
Spectrometer Type: S2000
ADC Type: USB2000
Number of Pixels in File: 2048
Graph Title: 
>>>>>Begin Spectral Data<<<<<
180.30	0.000
180.67	0.000
181.03	13.080
181.40	481.723
181.77	-3077.752
182.14	9.749
182.51	-101.485
182.88	414.142
183.25	44.473
183.62	25.853
183.99	185.122
184.36	3.648
184.73	309.499
185.10	175.168
185.46	-154.107
185.83	83.899
186.20	674.390
186.57	-184.104
186.94	0.554
187.31	22.385
187.68	107.468
188.05	124.771
188.42	209.378
188.78	242.856
189.15	755.590
189.52	-186.790
189.89	-38.565
190.26	-27.955
190.63	-5.812
191.00	6.137
191.37	11.185
191.73	13.844
192.10	16.728
192.47	18.831
192.84	16.112
193.21	18.129
193.58	17.141
193.94	8.126
194.31	17.290
194.68	12.673
195.05	-8.668
195.42	-18.510
195.79	-20.831
196.15	-19.647
196.52	-14.794
196.89	-35.951
197.26	-32.356
197.63	-37.725
198.00	-29.665
198.36	-30.675
198.73	-54.260
199.10	-28.578
199.47	-19.979
199.84	-36.622
200.20	-33.914
200.57	-26.800
200.94	-9.112
201.31	3.432
201.68	9.784
202.04	-0.134
202.41	-8.257
202.78	-10.622
203.15	-9.766
203.51	17.426
203.88	22.458
204.25	32.661
204.62	33.481
204.98	14.322
205.35	-8.927
205.72	-26.763
206.09	-19.318
206.46	-49.806
206.82	-34.490
207.19	-40.835
207.56	-114.867
207.92	-102.109
208.29	-120.956
208.66	-87.545
209.03	-86.503
209.39	-46.342
209.76	-39.633
210.13	-60.314
210.50	-28.304
210.86	-22.265
211.23	-38.177
211.60	-14.364
211.96	-17.480
212.33	-20.514
212.70	-27.757
213.07	-22.359
213.43	-77.990
213.80	-82.835
214.17	-46.814
214.53	-38.618
214.90	-29.311
215.27	-20.662
215.63	-22.046
216.00	-12.975
216.37	-5.498
216.74	-21.919
217.10	-17.860
217.47	-6.860
217.84	0.192
218.20	-1.809
218.57	-8.500
218.94	-14.775
219.30	-20.395
219.67	-25.856
220.04	-31.260
220.40	-37.062
220.77	-32.562
221.13	-30.767
221.50	-31.238
221.87	-32.845
222.23	-40.561
222.60	-47.489
222.97	-44.772
223.33	-34.945
223.70	-29.189
224.07	-25.659
224.43	-23.528
224.80	-17.627
225.16	-15.687
225.53	-14.664
225.90	-14.926
226.26	-10.472
226.63	-5.078
226.99	-2.883
227.36	-2.007
227.73	-0.265
228.09	-0.706
228.46	0.704
228.82	0.833
229.19	0.473
229.56	1.710
229.92	3.885
230.29	4.999
230.65	3.634
231.02	1.613
231.38	-1.482
231.75	-3.316
232.12	-3.966
232.48	-7.091
232.85	-8.466
233.21	-9.334
233.58	-11.893
233.94	-12.519
234.31	-15.157
234.68	-14.506
235.04	-13.172
235.41	-9.060
235.77	-7.460
236.14	-6.260
236.50	-2.783
236.87	-1.215
237.23	0.117
237.60	0.976
237.96	1.727
238.33	1.400
238.69	0.765
239.06	0.596
239.42	0.032
239.79	-0.564
240.15	-0.280
240.52	-0.277
240.88	-0.005
241.25	-0.455
241.61	-0.363
241.98	-0.748
242.34	-0.473
242.71	-0.059
243.07	0.470
243.44	0.532
243.80	0.875
244.17	1.116
244.53	0.860
244.90	0.746
245.26	0.966
245.63	1.154
245.99	1.011
246.36	1.234
246.72	1.427
247.09	1.027
247.45	1.186
247.81	1.469
248.18	1.356
248.54	1.686
248.91	1.339
249.27	1.476
249.64	1.406
250.00	1.512
250.36	1.319
250.73	0.829
251.09	0.921
251.46	0.626
251.82	0.069
252.19	0.036
252.55	-0.310
252.91	-0.144
253.28	-0.450
253.64	-0.594
254.01	0.047
254.37	0.330
254.73	1.053
255.10	1.378
255.46	1.766
255.83	1.953
256.19	1.952
256.55	1.865
256.92	2.024
257.28	1.961
257.65	2.183
258.01	2.110
258.37	2.136
258.74	1.770
259.10	1.563
259.46	1.286
259.83	0.917
260.19	0.778
260.55	0.740
260.92	0.453
261.28	0.373
261.64	0.281
262.01	0.245
262.37	-0.039
262.73	0.061
263.10	0.313
263.46	0.563
263.82	0.815
264.19	0.905
264.55	0.682
264.91	0.659
265.28	0.715
265.64	0.530
266.00	0.282
266.37	0.254
266.73	0.258
267.09	0.218
267.46	0.047
267.82	-0.002
268.18	0.137
268.54	0.372
268.91	0.614
269.27	0.594
269.63	0.916
270.00	1.059
270.36	1.146
270.72	1.370
271.08	1.317
271.45	1.227
271.81	1.184
272.17	1.013
272.53	1.006
272.90	1.043
273.26	1.136
273.62	0.909
273.98	0.625
274.35	0.401
274.71	0.197
275.07	0.178
275.43	0.458
275.80	0.658
276.16	0.664
276.52	0.562
276.88	0.504
277.25	0.379
277.61	0.320
277.97	0.480
278.33	0.796
278.69	0.696
279.06	0.786
279.42	0.694
279.78	0.675
280.14	0.861
280.50	1.028
280.87	1.063
281.23	1.067
281.59	1.156
281.95	1.291
282.31	1.334
282.68	1.332
283.04	1.340
283.40	1.306
283.76	1.343
284.12	1.371
284.48	1.455
284.85	1.438
285.21	1.521
285.57	1.421
285.93	1.419
286.29	1.183
286.65	1.300
287.02	1.671
287.38	1.760
287.74	1.758
288.10	1.733
288.46	1.613
288.82	1.511
289.18	1.471
289.54	1.518
289.91	1.579
290.27	1.664
290.63	1.753
290.99	1.471
291.35	1.645
291.71	1.748
292.07	1.718
292.43	1.613
292.79	1.661
293.16	1.702
293.52	1.666
293.88	1.640
294.24	1.810
294.60	1.704
294.96	1.606
295.32	1.583
295.68	1.502
296.04	1.446
296.40	1.616
296.76	1.795
297.12	1.617
297.49	1.622
297.85	1.378
298.21	1.232
298.57	1.214
298.93	1.334
299.29	1.094
299.65	1.194
300.01	1.205
300.37	1.196
300.73	1.277
301.09	1.436
301.45	1.501
301.81	1.773
302.17	1.858
302.53	1.794
302.89	1.588
303.25	1.713
303.61	1.639
303.97	1.486
304.33	1.385
304.69	1.373
305.05	1.491
305.41	1.431
305.77	1.373
306.13	1.275
306.49	1.312
306.85	1.437
307.21	1.470
307.57	1.526
307.93	1.653
308.29	1.717
308.65	1.662
309.01	1.581
309.37	1.608
309.73	1.469
310.09	1.646
310.45	1.725
310.81	1.699
311.17	1.606
311.53	1.515
311.89	1.572
312.25	1.516
312.61	1.364
312.96	1.447
313.32	1.492
313.68	1.531
314.04	1.484
314.40	1.555
314.76	1.472
315.12	1.500
315.48	1.491
315.84	1.438
316.20	1.495
316.56	1.541
316.92	1.471
317.27	1.343
317.63	1.490
317.99	1.479
318.35	1.441
318.71	1.583
319.07	1.682
319.43	1.814
319.79	1.810
320.15	1.758
320.50	1.822
320.86	1.824
321.22	1.900
321.58	1.837
321.94	1.705
322.30	1.649
322.66	1.617
323.01	1.490
323.37	1.479
323.73	1.499
324.09	1.454
324.45	1.404
324.81	1.353
325.17	1.390
325.52	1.363
325.88	1.372
326.24	1.317
326.60	1.308
326.96	1.421
327.31	1.431
327.67	1.343
328.03	1.438
328.39	1.413
328.75	1.406
329.11	1.439
329.46	1.502
329.82	1.596
330.18	1.613
330.54	1.622
330.90	1.581
331.25	1.473
331.61	1.578
331.97	1.546
332.33	1.695
332.68	1.800
333.04	1.774
333.40	1.739
333.76	1.597
334.11	1.666
334.47	1.722
334.83	1.685
335.19	1.644
335.54	1.618
335.90	1.693
336.26	1.610
336.62	1.554
336.97	1.472
337.33	1.434
337.69	1.506
338.05	1.376
338.40	1.262
338.76	1.268
339.12	1.296
339.48	1.299
339.83	1.171
340.19	1.239
340.55	1.283
340.90	1.322
341.26	1.349
341.62	1.360
341.97	1.467
342.33	1.468
342.69	1.526
343.04	1.547
343.40	1.435
343.76	1.390
344.12	1.310
344.47	1.317
344.83	1.331
345.19	1.339
345.54	1.310
345.90	1.316
346.26	1.385
346.61	1.366
346.97	1.348
347.32	1.465
347.68	1.542
348.04	1.481
348.39	1.384
348.75	1.402
349.11	1.341
349.46	1.414
349.82	1.398
350.18	1.336
350.53	1.329
350.89	1.373
351.24	1.277
351.60	1.290
351.96	1.419
352.31	1.410
352.67	1.412
353.02	1.447
353.38	1.367
353.74	1.346
354.09	1.318
354.45	1.288
354.80	1.242
355.16	1.322
355.52	1.403
355.87	1.286
356.23	1.318
356.58	1.312
356.94	1.341
357.29	1.378
357.65	1.399
358.00	1.462
358.36	1.496
358.72	1.465
359.07	1.470
359.43	1.465
359.78	1.592
360.14	1.620
360.49	1.558
360.85	1.582
361.20	1.587
361.56	1.576
361.91	1.547
362.27	1.520
362.62	1.634
362.98	1.637
363.33	1.515
363.69	1.417
364.04	1.425
364.40	1.451
364.75	1.379
365.11	1.340
365.46	1.310
365.82	1.341
366.17	1.330
366.53	1.330
366.88	1.308
367.24	1.399
367.59	1.414
367.95	1.405
368.30	1.411
368.66	1.430
369.01	1.433
369.37	1.465
369.72	1.484
370.08	1.554
370.43	1.484
370.78	1.477
371.14	1.421
371.49	1.448
371.85	1.419
372.20	1.447
372.56	1.469
372.91	1.477
373.26	1.482
373.62	1.426
373.97	1.425
374.33	1.467
374.68	1.488
375.03	1.524
375.39	1.493
375.74	1.485
376.10	1.460
376.45	1.478
376.80	1.511
377.16	1.509
377.51	1.574
377.87	1.557
378.22	1.491
378.57	1.482
378.93	1.496
379.28	1.562
379.63	1.591
379.99	1.656
380.34	1.637
380.70	1.648
381.05	1.675
381.40	1.678
381.76	1.669
382.11	1.752
382.46	1.807
382.82	1.837
383.17	1.781
383.52	1.792
383.88	1.758
384.23	1.764
384.58	1.727
384.94	1.689
385.29	1.697
385.64	1.727
385.99	1.725
386.35	1.694
386.70	1.653
387.05	1.646
387.41	1.648
387.76	1.626
388.11	1.622
388.47	1.622
388.82	1.662
389.17	1.623
389.52	1.601
389.88	1.637
390.23	1.649
390.58	1.667
390.93	1.706
391.29	1.722
391.64	1.741
391.99	1.792
392.34	1.820
392.70	1.816
393.05	1.830
393.40	1.843
393.75	1.789
394.11	1.784
394.46	1.739
394.81	1.703
395.16	1.626
395.52	1.620
395.87	1.590
396.22	1.618
396.57	1.591
396.92	1.570
397.28	1.550
397.63	1.544
397.98	1.534
398.33	1.562
398.68	1.543
399.04	1.592
399.39	1.571
399.74	1.556
400.09	1.520
400.44	1.531
400.80	1.537
401.15	1.541
401.50	1.548
401.85	1.536
402.20	1.513
402.55	1.547
402.90	1.523
403.26	1.530
403.61	1.521
403.96	1.517
404.31	1.482
404.66	1.476
405.01	1.471
405.36	1.456
405.72	1.476
406.07	1.476
406.42	1.446
406.77	1.457
407.12	1.474
407.47	1.477
407.82	1.477
408.17	1.496
408.53	1.486
408.88	1.462
409.23	1.461
409.58	1.411
409.93	1.438
410.28	1.464
410.63	1.439
410.98	1.428
411.33	1.443
411.68	1.433
412.03	1.457
412.38	1.449
412.73	1.496
413.09	1.508
413.44	1.548
413.79	1.563
414.14	1.587
414.49	1.640
414.84	1.651
415.19	1.661
415.54	1.697
415.89	1.713
416.24	1.773
416.59	1.801
416.94	1.824
417.29	1.855
417.64	1.857
417.99	1.865
418.34	1.879
418.69	1.894
419.04	1.909
419.39	1.926
419.74	1.927
420.09	1.929
420.44	1.928
420.79	1.921
421.14	1.912
421.49	1.928
421.84	1.929
422.19	1.930
422.54	1.926
422.89	1.919
423.24	1.900
423.59	1.892
423.94	1.871
424.29	1.865
424.64	1.878
424.99	1.867
425.34	1.845
425.68	1.825
426.03	1.786
426.38	1.790
426.73	1.794
427.08	1.798
427.43	1.821
427.78	1.844
428.13	1.829
428.48	1.832
428.83	1.851
429.18	1.867
429.53	1.879
429.87	1.902
430.22	1.886
430.57	1.892
430.92	1.885
431.27	1.884
431.62	1.852
431.97	1.848
432.32	1.839
432.67	1.819
433.01	1.794
433.36	1.800
433.71	1.793
434.06	1.792
434.41	1.783
434.76	1.795
435.11	1.799
435.45	1.821
435.80	1.822
436.15	1.831
436.50	1.860
436.85	1.874
437.20	1.856
437.54	1.868
437.89	1.890
438.24	1.881
438.59	1.879
438.94	1.869
439.29	1.852
439.63	1.857
439.98	1.844
440.33	1.826
440.68	1.835
441.03	1.852
441.37	1.859
441.72	1.853
442.07	1.867
442.42	1.873
442.76	1.886
443.11	1.907
443.46	1.934
443.81	1.961
444.16	1.979
444.50	1.982
444.85	1.977
445.20	1.966
445.55	1.955
445.89	1.951
446.24	1.945
446.59	1.920
446.94	1.917
447.28	1.875
447.63	1.840
447.98	1.820
448.32	1.795
448.67	1.794
449.02	1.782
449.37	1.779
449.71	1.781
450.06	1.790
450.41	1.798
450.75	1.785
451.10	1.800
451.45	1.799
451.79	1.768
452.14	1.763
452.49	1.744
452.84	1.749
453.18	1.747
453.53	1.725
453.88	1.709
454.22	1.712
454.57	1.715
454.92	1.724
455.26	1.747
455.61	1.802
455.95	1.839
456.30	1.862
456.65	1.884
456.99	1.906
457.34	1.935
457.69	1.945
458.03	1.954
458.38	1.966
458.73	1.967
459.07	1.953
459.42	1.930
459.76	1.904
460.11	1.877
460.46	1.841
460.80	1.818
461.15	1.790
461.49	1.767
461.84	1.754
462.19	1.736
462.53	1.723
462.88	1.740
463.22	1.729
463.57	1.736
463.91	1.753
464.26	1.767
464.61	1.779
464.95	1.766
465.30	1.766
465.64	1.770
465.99	1.775
466.33	1.781
466.68	1.767
467.02	1.758
467.37	1.744
467.71	1.730
468.06	1.721
468.41	1.702
468.75	1.720
469.10	1.730
469.44	1.704
469.79	1.679
470.13	1.649
470.48	1.638
470.82	1.643
471.17	1.644
471.51	1.636
471.86	1.642
472.20	1.626
472.55	1.618
472.89	1.596
473.23	1.607
473.58	1.622
473.92	1.639
474.27	1.628
474.61	1.613
474.96	1.624
475.30	1.635
475.65	1.626
475.99	1.635
476.34	1.624
476.68	1.633
477.02	1.639
477.37	1.635
477.71	1.654
478.06	1.688
478.40	1.763
478.75	1.825
479.09	1.920
479.43	2.017
479.78	2.108
480.12	2.203
480.47	2.302
480.81	2.383
481.15	2.469
481.50	2.552
481.84	2.637
482.19	2.714
482.53	2.781
482.87	2.819
483.22	2.821
483.56	2.797
483.90	2.748
484.25	2.683
484.59	2.621
484.94	2.558
485.28	2.491
485.62	2.413
485.97	2.329
486.31	2.260
486.65	2.201
487.00	2.169
487.34	2.164
487.68	2.166
488.03	2.173
488.37	2.171
488.71	2.164
489.06	2.148
489.40	2.153
489.74	2.137
490.09	2.123
490.43	2.106
490.77	2.086
491.11	2.055
491.46	2.032
491.80	1.998
492.14	1.964
492.49	1.947
492.83	1.915
493.17	1.865
493.51	1.837
493.86	1.796
494.20	1.771
494.54	1.747
494.88	1.740
495.23	1.741
495.57	1.738
495.91	1.753
496.25	1.754
496.60	1.754
496.94	1.748
497.28	1.737
497.62	1.730
497.97	1.715
498.31	1.719
498.65	1.707
498.99	1.682
499.33	1.694
499.68	1.680
500.02	1.669
500.36	1.668
500.70	1.672
501.04	1.663
501.39	1.649
501.73	1.646
502.07	1.650
502.41	1.653
502.75	1.676
503.09	1.673
503.44	1.685
503.78	1.688
504.12	1.690
504.46	1.718
504.80	1.757
505.14	1.795
505.49	1.819
505.83	1.826
506.17	1.843
506.51	1.852
506.85	1.867
507.19	1.882
507.53	1.891
507.87	1.917
508.22	1.908
508.56	1.899
508.90	1.878
509.24	1.882
509.58	1.871
509.92	1.875
510.26	1.875
510.60	1.876
510.94	1.872
511.28	1.864
511.63	1.858
511.97	1.865
512.31	1.869
512.65	1.875
512.99	1.888
513.33	1.940
513.67	1.956
514.01	2.001
514.35	2.031
514.69	2.077
515.03	2.126
515.37	2.170
515.71	2.208
516.05	2.243
516.39	2.273
516.73	2.297
517.07	2.295
517.41	2.296
517.75	2.279
518.09	2.274
518.43	2.251
518.77	2.214
519.11	2.190
519.45	2.146
519.79	2.119
520.13	2.102
520.47	2.079
520.81	2.077
521.15	2.099
521.49	2.106
521.83	2.125
522.17	2.143
522.51	2.206
522.85	2.249
523.19	2.326
523.53	2.412
523.87	2.515
524.21	2.604
524.55	2.677
524.89	2.742
525.23	2.817
525.57	2.871
525.91	2.927
526.25	2.968
526.58	3.013
526.92	3.048
527.26	3.069
527.60	3.065
527.94	3.057
528.28	3.045
528.62	3.029
528.96	2.999
529.30	2.977
529.64	2.953
529.97	2.923
530.31	2.889
530.65	2.849
530.99	2.823
531.33	2.811
531.67	2.799
532.01	2.800
532.35	2.798
532.68	2.793
533.02	2.780
533.36	2.766
533.70	2.751
534.04	2.737
534.38	2.724
534.71	2.697
535.05	2.664
535.39	2.652
535.73	2.623
536.07	2.611
536.41	2.619
536.74	2.637
537.08	2.658
537.42	2.700
537.76	2.740
538.10	2.785
538.43	2.831
538.77	2.883
539.11	2.918
539.45	2.952
539.79	2.985
540.12	3.007
540.46	3.026
540.80	3.033
541.14	3.030
541.47	3.007
541.81	2.987
542.15	2.961
542.49	2.919
542.82	2.881
543.16	2.857
543.50	2.823
543.84	2.793
544.17	2.755
544.51	2.732
544.85	2.695
545.18	2.684
545.52	2.664
545.86	2.642
546.20	2.641
546.53	2.621
546.87	2.588
547.21	2.545
547.54	2.504
547.88	2.476
548.22	2.436
548.55	2.422
548.89	2.397
549.23	2.387
549.56	2.376
549.90	2.373
550.24	2.379
550.57	2.382
550.91	2.392
551.25	2.400
551.58	2.396
551.92	2.407
552.26	2.398
552.59	2.407
552.93	2.402
553.27	2.399
553.60	2.396
553.94	2.375
554.27	2.375
554.61	2.383
554.95	2.396
555.28	2.401
555.62	2.396
555.95	2.412
556.29	2.412
556.63	2.402
556.96	2.400
557.30	2.395
557.63	2.400
557.97	2.388
558.31	2.382
558.64	2.368
558.98	2.381
559.31	2.419
559.65	2.413
559.98	2.429
560.32	2.443
560.65	2.457
560.99	2.490
561.33	2.525
561.66	2.542
562.00	2.573
562.33	2.588
562.67	2.613
563.00	2.605
563.34	2.637
563.67	2.641
564.01	2.663
564.34	2.691
564.68	2.692
565.01	2.702
565.35	2.726
565.68	2.736
566.02	2.752
566.35	2.750
566.69	2.754
567.02	2.764
567.36	2.779
567.69	2.801
568.03	2.807
568.36	2.805
568.69	2.805
569.03	2.817
569.36	2.810
569.70	2.815
570.03	2.837
570.37	2.859
570.70	2.855
571.04	2.866
571.37	2.871
571.70	2.860
572.04	2.871
572.37	2.879
572.71	2.872
573.04	2.880
573.37	2.895
573.71	2.880
574.04	2.868
574.38	2.857
574.71	2.847
575.04	2.821
575.38	2.810
575.71	2.782
576.05	2.782
576.38	2.767
576.71	2.742
577.05	2.716
577.38	2.696
577.71	2.665
578.05	2.664
578.38	2.644
578.71	2.640
579.05	2.641
579.38	2.624
579.71	2.579
580.05	2.579
580.38	2.561
580.71	2.545
581.05	2.562
581.38	2.561
581.71	2.549
582.05	2.566
582.38	2.564
582.71	2.548
583.04	2.571
583.38	2.566
583.71	2.548
584.04	2.579
584.38	2.597
584.71	2.587
585.04	2.634
585.37	2.648
585.71	2.661
586.04	2.676
586.37	2.730
586.70	2.731
587.04	2.770
587.37	2.815
587.70	2.815
588.03	2.841
588.37	2.851
588.70	2.829
589.03	2.845
589.36	2.828
589.69	2.818
590.03	2.775
590.36	2.771
590.69	2.747
591.02	2.715
591.35	2.701
591.69	2.692
592.02	2.708
592.35	2.723
592.68	2.717
593.01	2.721
593.35	2.731
593.68	2.751
594.01	2.776
594.34	2.784
594.67	2.803
595.00	2.819
595.34	2.791
595.67	2.755
596.00	2.741
596.33	2.708
596.66	2.694
596.99	2.661
597.32	2.627
597.65	2.576
597.99	2.561
598.32	2.506
598.65	2.461
598.98	2.452
599.31	2.456
599.64	2.477
599.97	2.489
600.30	2.505
600.63	2.526
600.96	2.564
601.30	2.595
601.63	2.625
601.96	2.659
602.29	2.673
602.62	2.680
602.95	2.677
603.28	2.670
603.61	2.649
603.94	2.608
604.27	2.612
604.60	2.578
604.93	2.587
605.26	2.548
605.59	2.537
605.92	2.543
606.25	2.528
606.58	2.511
606.91	2.479
607.24	2.497
607.57	2.514
607.90	2.517
608.23	2.488
608.56	2.452
608.89	2.413
609.22	2.383
609.55	2.336
609.88	2.306
610.21	2.290
610.54	2.261
610.87	2.225
611.20	2.195
611.53	2.141
611.86	2.160
612.19	2.096
612.52	2.097
612.85	2.104
613.18	2.083
613.51	2.055
613.84	2.033
614.17	2.027
614.49	2.042
614.82	2.024
615.15	2.022
615.48	2.023
615.81	2.045
616.14	2.089
616.47	2.066
616.80	2.086
617.13	2.102
617.46	2.092
617.78	2.077
618.11	2.053
618.44	2.041
618.77	2.005
619.10	1.991
619.43	2.024
619.76	1.980
620.09	1.978
620.41	1.959
620.74	1.971
621.07	2.027
621.40	2.057
621.73	2.079
622.06	2.125
622.38	2.184
622.71	2.223
623.04	2.237
623.37	2.288
623.70	2.318
624.02	2.408
624.35	2.460
624.68	2.471
625.01	2.493
625.34	2.518
625.66	2.549
625.99	2.571
626.32	2.563
626.65	2.575
626.98	2.568
627.30	2.577
627.63	2.525
627.96	2.466
628.29	2.443
628.61	2.422
628.94	2.391
629.27	2.340
629.60	2.289
629.92	2.278
630.25	2.225
630.58	2.206
630.91	2.189
631.23	2.191
631.56	2.233
631.89	2.204
632.21	2.210
632.54	2.210
632.87	2.199
633.19	2.203
633.52	2.170
633.85	2.187
634.18	2.165
634.50	2.152
634.83	2.137
635.16	2.071
635.48	2.048
635.81	2.012
636.14	1.983
636.46	1.975
636.79	1.931
637.11	1.915
637.44	1.843
637.77	1.831
638.09	1.788
638.42	1.748
638.75	1.736
639.07	1.750
639.40	1.732
639.73	1.723
640.05	1.726
640.38	1.790
640.70	1.763
641.03	1.810
641.36	1.814
641.68	1.827
642.01	1.841
642.33	1.835
642.66	1.837
642.98	1.877
643.31	1.903
643.64	1.889
643.96	1.879
644.29	1.961
644.61	2.000
644.94	2.033
645.26	2.083
645.59	2.112
645.91	2.196
646.24	2.228
646.56	2.234
646.89	2.266
647.22	2.301
647.54	2.310
647.87	2.288
648.19	2.252
648.52	2.216
648.84	2.185
649.17	2.139
649.49	2.108
649.82	2.104
650.14	2.081
650.47	2.044
650.79	2.030
651.11	2.034
651.44	2.058
651.76	2.070
652.09	2.119
652.41	2.148
652.74	2.167
653.06	2.201
653.39	2.215
653.71	2.255
654.04	2.273
654.36	2.321
654.68	2.333
655.01	2.342
655.33	2.392
655.66	2.379
655.98	2.407
656.30	2.451
656.63	2.416
656.95	2.427
657.28	2.425
657.60	2.423
