OOIBase32 Version 2.0.0.6 Data File
++++++++++++++++++++++++++++++++++++
Date: 01-23-2012, 23:23:42
User: Valued Ocean Optics Customer
Spectrometer Serial Number: USB2E2917
Spectrometer Channel: Master
Integration Time (msec): 5
Spectra Averaged: 10
Boxcar Smoothing: 5
Correct for Electrical Dark: Enabled
Time Normalized: Disabled
Dual-beam Reference: Disabled
Reference Channel: Master
Temperature: Not acquired
Spectrometer Type: S2000
ADC Type: USB2000
Number of Pixels in File: 2048
Graph Title: 
>>>>>Begin Spectral Data<<<<<
180.30	0.000
180.67	0.000
181.03	14.164
181.40	781.309
181.77	3011.927
182.14	60.322
182.51	-684.387
182.88	217.700
183.25	69.146
183.62	101.135
183.99	-61.338
184.36	29.704
184.73	281.885
185.10	-23.173
185.46	52.329
185.83	-231.349
186.20	999.068
186.57	185.163
186.94	85.225
187.31	-10.084
187.68	-26.976
188.05	-75.803
188.42	-42.535
188.78	-4.882
189.15	234.873
189.52	-53.381
189.89	-19.047
190.26	5.758
190.63	-2.346
191.00	10.934
191.37	4.073
191.73	5.332
192.10	-1.882
192.47	8.155
192.84	4.420
193.21	9.084
193.58	4.431
193.94	-1.409
194.31	-19.390
194.68	-21.572
195.05	-28.741
195.42	-21.482
195.79	-20.905
196.15	-11.326
196.52	-25.496
196.89	-5.360
197.26	-3.490
197.63	7.672
198.00	25.133
198.36	57.520
198.73	71.801
199.10	40.140
199.47	35.084
199.84	27.544
200.20	12.119
200.57	12.390
200.94	9.793
201.31	15.190
201.68	0.300
202.04	-13.366
202.41	-5.980
202.78	-15.755
203.15	9.550
203.51	-5.230
203.88	5.356
204.25	21.191
204.62	10.286
204.98	-12.337
205.35	-14.231
205.72	1.096
206.09	-4.014
206.46	-47.958
206.82	-34.600
207.19	-65.538
207.56	-84.191
207.92	-96.659
208.29	-106.777
208.66	-65.575
209.03	-58.284
209.39	-38.242
209.76	-41.533
210.13	-44.779
210.50	-22.445
210.86	-15.116
211.23	-4.151
211.60	-8.929
211.96	-5.048
212.33	-12.582
212.70	-15.424
213.07	-14.258
213.43	-48.514
213.80	-67.016
214.17	-36.726
214.53	-24.485
214.90	-9.465
215.27	4.193
215.63	11.063
216.00	25.171
216.37	32.977
216.74	37.711
217.10	41.696
217.47	38.702
217.84	45.786
218.20	41.613
218.57	33.628
218.94	24.227
219.30	17.083
219.67	10.546
220.04	4.350
220.40	-3.009
220.77	-12.885
221.13	-13.178
221.50	-5.053
221.87	-6.143
222.23	-7.950
222.60	-12.540
222.97	-14.969
223.33	-12.152
223.70	-2.942
224.07	-4.993
224.43	0.288
224.80	5.306
225.16	3.916
225.53	2.693
225.90	0.173
226.26	1.373
226.63	3.827
226.99	5.059
227.36	4.747
227.73	4.349
228.09	3.821
228.46	4.782
228.82	4.976
229.19	5.756
229.56	5.888
229.92	8.812
230.29	8.499
230.65	7.828
231.02	6.786
231.38	4.391
231.75	3.702
232.12	3.539
232.48	-0.274
232.85	-1.551
233.21	-1.901
233.58	-4.534
233.94	-5.854
234.31	-5.546
234.68	-5.458
235.04	-5.116
235.41	-2.041
235.77	-1.374
236.14	0.351
236.50	2.767
236.87	3.346
237.23	3.453
237.60	3.107
237.96	2.819
238.33	1.543
238.69	0.680
239.06	0.964
239.42	0.922
239.79	0.629
240.15	0.615
240.52	0.951
240.88	1.263
241.25	0.741
241.61	1.487
241.98	1.320
242.34	1.602
242.71	2.214
243.07	2.325
243.44	2.120
243.80	1.793
244.17	1.607
244.53	1.028
244.90	0.871
245.26	1.361
245.63	1.255
245.99	1.375
246.36	1.349
246.72	1.457
247.09	1.056
247.45	1.127
247.81	1.468
248.18	1.408
248.54	1.366
248.91	1.118
249.27	0.946
249.64	1.102
250.00	1.065
250.36	1.102
250.73	0.850
251.09	1.155
251.46	1.169
251.82	1.269
252.19	1.553
252.55	1.705
252.91	1.746
253.28	1.468
253.64	1.062
254.01	1.158
254.37	1.505
254.73	1.745
255.10	1.986
255.46	2.339
255.83	2.399
256.19	2.497
256.55	2.567
256.92	2.923
257.28	3.021
257.65	3.173
258.01	3.068
258.37	2.843
258.74	2.622
259.10	2.540
259.46	2.312
259.83	1.993
260.19	1.845
260.55	1.769
260.92	1.396
261.28	1.279
261.64	1.230
262.01	1.239
262.37	1.198
262.73	1.122
263.10	1.376
263.46	1.244
263.82	1.540
264.19	1.830
264.55	1.733
264.91	1.770
265.28	1.648
265.64	1.478
266.00	1.544
266.37	1.735
266.73	2.037
267.09	1.916
267.46	1.959
267.82	1.865
268.18	1.702
268.54	2.131
268.91	2.110
269.27	2.037
269.63	2.225
270.00	2.277
270.36	2.191
270.72	2.209
271.08	2.179
271.45	2.113
271.81	2.189
272.17	2.168
272.53	1.866
272.90	2.147
273.26	2.336
273.62	2.015
273.98	1.877
274.35	1.789
274.71	1.812
275.07	1.835
275.43	2.033
275.80	1.953
276.16	1.839
276.52	1.950
276.88	1.628
277.25	1.524
277.61	1.525
277.97	1.235
278.33	1.416
278.69	1.227
279.06	1.210
279.42	1.172
279.78	1.118
280.14	1.316
280.50	1.371
280.87	1.409
281.23	1.380
281.59	1.521
281.95	1.843
282.31	2.115
282.68	2.108
283.04	2.100
283.40	2.167
283.76	2.265
284.12	2.263
284.48	2.151
284.85	2.113
285.21	2.280
285.57	2.336
285.93	2.436
286.29	2.088
286.65	2.160
287.02	2.433
287.38	2.438
287.74	2.322
288.10	2.272
288.46	2.286
288.82	2.290
289.18	2.141
289.54	2.152
289.91	2.091
290.27	2.257
290.63	2.332
290.99	2.038
291.35	2.014
291.71	2.175
292.07	2.130
292.43	2.122
292.79	2.203
293.16	2.180
293.52	2.274
293.88	2.350
294.24	2.369
294.60	2.311
294.96	2.395
295.32	2.383
295.68	2.310
296.04	2.291
296.40	2.346
296.76	2.324
297.12	2.208
297.49	1.949
297.85	1.715
298.21	1.660
298.57	1.515
298.93	1.492
299.29	1.332
299.65	1.435
300.01	1.487
300.37	1.545
300.73	1.687
301.09	1.919
301.45	2.106
301.81	2.357
302.17	2.359
302.53	2.417
302.89	2.221
303.25	2.347
303.61	2.264
303.97	2.158
304.33	2.098
304.69	2.183
305.05	2.087
305.41	2.058
305.77	1.925
306.13	1.838
306.49	1.810
306.85	2.054
307.21	2.133
307.57	2.241
307.93	2.415
308.29	2.607
308.65	2.470
309.01	2.446
309.37	2.402
309.73	2.411
310.09	2.575
310.45	2.617
310.81	2.500
311.17	2.443
311.53	2.327
311.89	2.260
312.25	2.118
312.61	2.118
312.96	2.190
313.32	2.321
313.68	2.126
314.04	2.033
314.40	2.067
314.76	1.986
315.12	1.829
315.48	1.939
315.84	1.884
316.20	1.818
316.56	1.843
316.92	1.825
317.27	1.695
317.63	1.880
317.99	1.822
318.35	1.777
318.71	1.904
319.07	2.058
319.43	2.018
319.79	2.124
320.15	2.122
320.50	2.183
320.86	2.169
321.22	2.278
321.58	2.157
321.94	2.021
322.30	1.972
322.66	2.015
323.01	1.899
323.37	1.906
323.73	1.846
324.09	1.815
324.45	1.816
324.81	1.816
325.17	1.771
325.52	1.813
325.88	1.953
326.24	2.100
326.60	2.088
326.96	2.205
327.31	2.051
327.67	2.046
328.03	2.156
328.39	2.131
328.75	2.209
329.11	2.208
329.46	2.288
329.82	2.369
330.18	2.260
330.54	2.267
330.90	2.214
331.25	2.345
331.61	2.345
331.97	2.368
332.33	2.302
332.68	2.289
333.04	2.285
333.40	2.199
333.76	2.081
334.11	2.118
334.47	2.136
334.83	2.140
335.19	2.119
335.54	2.207
335.90	2.145
336.26	2.191
336.62	2.122
336.97	2.035
337.33	1.953
337.69	1.958
338.05	1.948
338.40	1.946
338.76	1.977
339.12	1.992
339.48	1.864
339.83	1.827
340.19	1.762
340.55	1.816
340.90	1.865
341.26	1.980
341.62	1.972
341.97	2.021
342.33	2.064
342.69	2.127
343.04	2.114
343.40	2.034
343.76	1.963
344.12	1.906
344.47	1.928
344.83	1.983
345.19	2.024
345.54	2.086
345.90	2.058
346.26	2.028
346.61	2.008
346.97	2.081
347.32	2.208
347.68	2.277
348.04	2.314
348.39	2.232
348.75	2.281
349.11	2.213
349.46	2.166
349.82	2.132
350.18	2.089
350.53	2.073
350.89	2.009
351.24	1.961
351.60	1.923
351.96	2.004
352.31	2.054
352.67	2.002
353.02	2.023
353.38	2.061
353.74	2.052
354.09	2.047
354.45	2.008
354.80	2.011
355.16	2.084
355.52	2.121
355.87	2.038
356.23	2.080
356.58	2.072
356.94	2.117
357.29	2.127
357.65	2.182
358.00	2.178
358.36	2.202
358.72	2.180
359.07	2.177
359.43	2.215
359.78	2.293
360.14	2.272
360.49	2.245
360.85	2.245
361.20	2.187
361.56	2.151
361.91	2.129
362.27	2.101
362.62	2.122
362.98	2.101
363.33	2.038
363.69	2.008
364.04	2.025
364.40	2.056
364.75	2.011
365.11	2.058
365.46	2.028
365.82	2.090
366.17	2.100
366.53	2.148
366.88	2.181
367.24	2.246
367.59	2.264
367.95	2.242
368.30	2.182
368.66	2.219
369.01	2.233
369.37	2.314
369.72	2.345
370.08	2.399
370.43	2.382
370.78	2.399
371.14	2.385
371.49	2.381
371.85	2.419
372.20	2.505
372.56	2.506
372.91	2.476
373.26	2.454
373.62	2.372
373.97	2.369
374.33	2.347
374.68	2.340
375.03	2.364
375.39	2.360
375.74	2.313
376.10	2.319
376.45	2.330
376.80	2.386
377.16	2.404
377.51	2.495
377.87	2.522
378.22	2.508
378.57	2.475
378.93	2.502
379.28	2.536
379.63	2.556
379.99	2.555
380.34	2.539
380.70	2.546
381.05	2.584
381.40	2.531
381.76	2.539
382.11	2.574
382.46	2.621
382.82	2.634
383.17	2.637
383.52	2.640
383.88	2.628
384.23	2.629
384.58	2.591
384.94	2.548
385.29	2.580
385.64	2.555
385.99	2.596
386.35	2.631
386.70	2.629
387.05	2.607
387.41	2.618
387.76	2.595
388.11	2.617
388.47	2.620
388.82	2.656
389.17	2.659
389.52	2.666
389.88	2.686
390.23	2.649
390.58	2.649
390.93	2.658
391.29	2.656
391.64	2.723
391.99	2.761
392.34	2.770
392.70	2.765
393.05	2.776
393.40	2.785
393.75	2.727
394.11	2.745
394.46	2.724
394.81	2.729
395.16	2.708
395.52	2.682
395.87	2.659
396.22	2.706
396.57	2.697
396.92	2.653
397.28	2.619
397.63	2.621
397.98	2.616
398.33	2.613
398.68	2.607
399.04	2.616
399.39	2.571
399.74	2.564
400.09	2.541
400.44	2.506
400.80	2.533
401.15	2.539
401.50	2.530
401.85	2.520
402.20	2.510
402.55	2.540
402.90	2.531
403.26	2.565
403.61	2.573
403.96	2.544
404.31	2.579
404.66	2.595
405.01	2.593
405.36	2.614
405.72	2.575
406.07	2.570
406.42	2.531
406.77	2.536
407.12	2.534
407.47	2.540
407.82	2.548
408.17	2.543
408.53	2.530
408.88	2.518
409.23	2.479
409.58	2.471
409.93	2.508
410.28	2.531
410.63	2.544
410.98	2.531
411.33	2.509
411.68	2.512
412.03	2.520
412.38	2.490
412.73	2.522
413.09	2.564
413.44	2.612
413.79	2.612
414.14	2.623
414.49	2.662
414.84	2.677
415.19	2.705
415.54	2.719
415.89	2.742
416.24	2.786
416.59	2.807
416.94	2.824
417.29	2.842
417.64	2.846
417.99	2.863
418.34	2.855
418.69	2.881
419.04	2.880
419.39	2.904
419.74	2.903
420.09	2.910
420.44	2.917
420.79	2.916
421.14	2.911
421.49	2.933
421.84	2.929
422.19	2.936
422.54	2.935
422.89	2.945
423.24	2.930
423.59	2.932
423.94	2.917
424.29	2.909
424.64	2.915
424.99	2.926
425.34	2.887
425.68	2.880
426.03	2.873
426.38	2.860
426.73	2.846
427.08	2.863
427.43	2.869
427.78	2.883
428.13	2.880
428.48	2.873
428.83	2.875
429.18	2.891
429.53	2.895
429.87	2.880
430.22	2.880
430.57	2.898
430.92	2.895
431.27	2.900
431.62	2.897
431.97	2.908
432.32	2.905
432.67	2.896
433.01	2.889
433.36	2.883
433.71	2.892
434.06	2.890
434.41	2.877
434.76	2.872
435.11	2.861
435.45	2.867
435.80	2.859
436.15	2.876
436.50	2.886
436.85	2.921
437.20	2.913
437.54	2.918
437.89	2.933
438.24	2.947
438.59	2.954
438.94	2.948
439.29	2.919
439.63	2.924
439.98	2.914
440.33	2.919
440.68	2.910
441.03	2.933
441.37	2.943
441.72	2.940
442.07	2.934
442.42	2.946
442.76	2.977
443.11	3.007
443.46	3.033
443.81	3.044
444.16	3.054
444.50	3.054
444.85	3.054
445.20	3.053
445.55	3.061
445.89	3.065
446.24	3.068
446.59	3.034
446.94	3.023
447.28	2.987
447.63	2.973
447.98	2.961
448.32	2.949
448.67	2.933
449.02	2.918
449.37	2.897
449.71	2.898
450.06	2.871
450.41	2.900
450.75	2.911
451.10	2.934
451.45	2.932
451.79	2.922
452.14	2.927
452.49	2.942
452.84	2.941
453.18	2.933
453.53	2.918
453.88	2.944
454.22	2.938
454.57	2.960
454.92	2.958
455.26	2.973
455.61	3.012
455.95	3.036
456.30	3.039
456.65	3.073
456.99	3.108
457.34	3.136
457.69	3.143
458.03	3.162
458.38	3.158
458.73	3.165
459.07	3.170
459.42	3.151
459.76	3.111
460.11	3.103
460.46	3.084
460.80	3.058
461.15	3.040
461.49	3.013
461.84	3.004
462.19	2.989
462.53	2.992
462.88	3.000
463.22	2.991
463.57	3.028
463.91	3.038
464.26	3.055
464.61	3.072
464.95	3.079
465.30	3.077
465.64	3.071
465.99	3.078
466.33	3.070
466.68	3.057
467.02	3.064
467.37	3.055
467.71	3.049
468.06	3.043
468.41	3.024
468.75	3.010
469.10	3.023
469.44	3.010
469.79	3.002
470.13	2.975
470.48	2.967
470.82	2.971
471.17	2.983
471.51	2.979
471.86	2.968
472.20	2.975
472.55	2.991
472.89	2.991
473.23	2.986
473.58	2.987
473.92	3.009
474.27	3.004
474.61	2.986
474.96	2.977
475.30	2.986
475.65	2.975
475.99	2.971
476.34	2.955
476.68	2.949
477.02	2.969
477.37	2.980
477.71	3.005
478.06	3.040
478.40	3.110
478.75	3.173
479.09	3.253
479.43	3.353
479.78	3.467
480.12	3.590
480.47	3.706
480.81	3.802
481.15	3.899
481.50	4.009
481.84	4.125
482.19	4.230
482.53	4.328
482.87	4.394
483.22	4.406
483.56	4.362
483.90	4.278
484.25	4.188
484.59	4.097
484.94	4.011
485.28	3.913
485.62	3.815
485.97	3.710
486.31	3.623
486.65	3.553
487.00	3.524
487.34	3.531
487.68	3.559
488.03	3.582
488.37	3.614
488.71	3.630
489.06	3.633
489.40	3.635
489.74	3.627
490.09	3.619
490.43	3.601
490.77	3.578
491.11	3.552
491.46	3.532
491.80	3.520
492.14	3.478
492.49	3.458
492.83	3.428
493.17	3.378
493.51	3.347
493.86	3.293
494.20	3.270
494.54	3.265
494.88	3.260
495.23	3.260
495.57	3.261
495.91	3.289
496.25	3.295
496.60	3.307
496.94	3.308
497.28	3.306
497.62	3.323
497.97	3.321
498.31	3.326
498.65	3.321
498.99	3.319
499.33	3.331
499.68	3.327
500.02	3.348
500.36	3.340
500.70	3.357
501.04	3.351
501.39	3.351
501.73	3.368
502.07	3.375
502.41	3.399
502.75	3.425
503.09	3.426
503.44	3.449
503.78	3.437
504.12	3.458
504.46	3.494
504.80	3.535
505.14	3.564
505.49	3.591
505.83	3.612
506.17	3.646
506.51	3.652
506.85	3.678
507.19	3.688
507.53	3.713
507.87	3.731
508.22	3.732
508.56	3.735
508.90	3.733
509.24	3.726
509.58	3.733
509.92	3.722
510.26	3.731
510.60	3.727
510.94	3.731
511.28	3.720
511.63	3.734
511.97	3.732
512.31	3.742
512.65	3.748
512.99	3.763
513.33	3.787
513.67	3.815
514.01	3.866
514.35	3.915
514.69	3.971
515.03	4.026
515.37	4.078
515.71	4.122
516.05	4.158
516.39	4.190
516.73	4.215
517.07	4.229
517.41	4.239
517.75	4.234
518.09	4.214
518.43	4.195
518.77	4.172
519.11	4.137
519.45	4.106
519.79	4.098
520.13	4.086
520.47	4.097
520.81	4.102
521.15	4.126
521.49	4.139
521.83	4.168
522.17	4.187
522.51	4.224
522.85	4.275
523.19	4.362
523.53	4.451
523.87	4.564
524.21	4.660
524.55	4.737
524.89	4.810
525.23	4.888
525.57	4.952
525.91	5.029
526.25	5.085
526.58	5.145
526.92	5.175
527.26	5.198
527.60	5.196
527.94	5.183
528.28	5.174
528.62	5.156
528.96	5.131
529.30	5.119
529.64	5.081
529.97	5.054
530.31	5.017
530.65	4.999
530.99	4.967
531.33	4.955
531.67	4.955
532.01	4.956
532.35	4.946
532.68	4.946
533.02	4.923
533.36	4.913
533.70	4.903
534.04	4.886
534.38	4.868
534.71	4.862
535.05	4.838
535.39	4.831
535.73	4.821
536.07	4.841
536.41	4.854
536.74	4.883
537.08	4.913
537.42	4.954
537.76	4.998
538.10	5.037
538.43	5.084
538.77	5.126
539.11	5.151
539.45	5.178
539.79	5.201
540.12	5.221
540.46	5.233
540.80	5.237
541.14	5.221
541.47	5.196
541.81	5.178
542.15	5.140
542.49	5.113
542.82	5.089
543.16	5.072
543.50	5.044
543.84	5.005
544.17	4.965
544.51	4.934
544.85	4.912
545.18	4.907
545.52	4.885
545.86	4.871
546.20	4.867
546.53	4.836
546.87	4.790
547.21	4.751
547.54	4.731
547.88	4.732
548.22	4.725
548.55	4.723
548.89	4.704
549.23	4.695
549.56	4.682
549.90	4.690
550.24	4.706
550.57	4.718
550.91	4.737
551.25	4.753
551.58	4.744
551.92	4.753
552.26	4.755
552.59	4.760
552.93	4.774
553.27	4.790
553.60	4.780
553.94	4.760
554.27	4.767
554.61	4.770
554.95	4.741
555.28	4.757
555.62	4.750
555.95	4.772
556.29	4.779
556.63	4.757
556.96	4.766
557.30	4.769
557.63	4.780
557.97	4.775
558.31	4.765
558.64	4.790
558.98	4.794
559.31	4.815
559.65	4.794
559.98	4.815
560.32	4.836
560.65	4.827
560.99	4.825
561.33	4.855
561.66	4.864
562.00	4.894
562.33	4.898
562.67	4.892
563.00	4.900
563.34	4.943
563.67	4.952
564.01	4.974
564.34	5.008
564.68	5.040
565.01	5.043
565.35	5.074
565.68	5.073
566.02	5.090
566.35	5.124
566.69	5.123
567.02	5.138
567.36	5.132
567.69	5.138
568.03	5.148
568.36	5.143
568.69	5.146
569.03	5.153
569.36	5.164
569.70	5.184
570.03	5.200
570.37	5.236
570.70	5.235
571.04	5.260
571.37	5.265
571.70	5.264
572.04	5.274
572.37	5.289
572.71	5.274
573.04	5.276
573.37	5.270
573.71	5.247
574.04	5.228
574.38	5.205
574.71	5.191
575.04	5.188
575.38	5.171
575.71	5.150
576.05	5.138
576.38	5.159
576.71	5.138
577.05	5.119
577.38	5.110
577.71	5.093
578.05	5.084
578.38	5.074
578.71	5.060
579.05	5.037
579.38	5.019
579.71	5.006
580.05	4.963
580.38	4.971
580.71	4.957
581.05	4.965
581.38	4.958
581.71	4.967
582.05	4.966
582.38	4.965
582.71	4.969
583.04	4.971
583.38	4.960
583.71	4.976
584.04	4.979
584.38	5.025
584.71	5.027
585.04	5.055
585.37	5.069
585.71	5.078
586.04	5.096
586.37	5.136
586.70	5.200
587.04	5.242
587.37	5.258
587.70	5.261
588.03	5.265
588.37	5.290
588.70	5.294
589.03	5.304
589.36	5.306
589.69	5.293
590.03	5.266
590.36	5.228
590.69	5.225
591.02	5.211
591.35	5.205
591.69	5.207
592.02	5.197
592.35	5.206
592.68	5.219
593.01	5.223
593.35	5.244
593.68	5.276
594.01	5.297
594.34	5.292
594.67	5.315
595.00	5.328
595.34	5.295
595.67	5.277
596.00	5.263
596.33	5.206
596.66	5.181
596.99	5.165
597.32	5.121
597.65	5.088
597.99	5.040
598.32	4.988
598.65	4.947
598.98	4.937
599.31	4.941
599.64	4.964
599.97	5.009
600.30	5.047
600.63	5.062
600.96	5.090
601.30	5.109
601.63	5.148
601.96	5.194
602.29	5.234
602.62	5.251
602.95	5.263
603.28	5.249
603.61	5.213
603.94	5.184
604.27	5.184
604.60	5.168
604.93	5.181
605.26	5.166
605.59	5.154
605.92	5.137
606.25	5.140
606.58	5.135
606.91	5.102
607.24	5.136
607.57	5.129
607.90	5.112
608.23	5.092
608.56	5.054
608.89	5.045
609.22	5.020
609.55	4.994
609.88	4.961
610.21	4.924
610.54	4.911
610.87	4.866
611.20	4.861
611.53	4.840
611.86	4.827
612.19	4.799
612.52	4.749
612.85	4.784
613.18	4.793
613.51	4.770
613.84	4.765
614.17	4.770
614.49	4.789
614.82	4.784
615.15	4.794
615.48	4.838
615.81	4.844
616.14	4.877
616.47	4.807
616.80	4.784
617.13	4.804
617.46	4.789
617.78	4.795
618.11	4.768
618.44	4.764
618.77	4.757
619.10	4.741
619.43	4.759
619.76	4.750
620.09	4.793
620.41	4.795
620.74	4.819
621.07	4.884
621.40	4.877
621.73	4.895
622.06	4.931
622.38	4.950
622.71	4.985
623.04	5.020
623.37	5.078
623.70	5.101
624.02	5.152
624.35	5.182
624.68	5.172
625.01	5.238
625.34	5.284
625.66	5.307
625.99	5.323
626.32	5.327
626.65	5.324
626.98	5.328
627.30	5.321
627.63	5.310
627.96	5.284
628.29	5.297
628.61	5.282
628.94	5.258
629.27	5.245
629.60	5.210
629.92	5.207
630.25	5.185
630.58	5.159
630.91	5.146
631.23	5.126
631.56	5.145
631.89	5.114
632.21	5.100
632.54	5.120
632.87	5.103
633.19	5.118
633.52	5.083
633.85	5.102
634.18	5.098
634.50	5.077
634.83	5.083
635.16	5.057
635.48	5.046
635.81	5.002
636.14	4.973
636.46	4.958
636.79	4.935
637.11	4.926
637.44	4.866
637.77	4.818
638.09	4.799
638.42	4.775
638.75	4.745
639.07	4.773
639.40	4.773
639.73	4.745
640.05	4.733
640.38	4.722
640.70	4.681
641.03	4.682
641.36	4.705
641.68	4.705
642.01	4.729
642.33	4.722
642.66	4.714
642.98	4.713
643.31	4.725
643.64	4.718
643.96	4.747
644.29	4.793
644.61	4.821
644.94	4.848
645.26	4.901
645.59	4.941
645.91	4.972
646.24	4.986
646.56	5.002
646.89	5.007
647.22	5.010
647.54	5.005
647.87	5.034
648.19	5.008
648.52	4.999
648.84	4.984
649.17	4.943
649.49	4.931
649.82	4.888
650.14	4.912
650.47	4.922
650.79	4.977
651.11	4.960
651.44	4.972
651.76	4.989
652.09	5.037
652.41	5.053
652.74	5.066
653.06	5.075
653.39	5.156
653.71	5.164
654.04	5.189
654.36	5.186
654.68	5.242
655.01	5.241
655.33	5.273
655.66	5.268
655.98	5.299
656.30	5.276
656.63	5.313
656.95	5.304
657.28	5.310
657.60	5.285
657.92	5.265
658.25	5.243
658.57	5.225
658.90	5.172
659.22	5.145
