OOIBase32 Version 2.0.0.6 Data File
++++++++++++++++++++++++++++++++++++
Date: 01-23-2012, 21:55:40
User: Valued Ocean Optics Customer
Spectrometer Serial Number: USB2E2917
Spectrometer Channel: Master
Integration Time (msec): 5
Spectra Averaged: 10
Boxcar Smoothing: 5
Correct for Electrical Dark: Enabled
Time Normalized: Disabled
Dual-beam Reference: Disabled
Reference Channel: Master
Temperature: Not acquired
Spectrometer Type: S2000
ADC Type: USB2000
Number of Pixels in File: 2048
Graph Title: 
>>>>>Begin Spectral Data<<<<<
180.30	0.000
180.67	0.000
181.03	219.430
181.40	-138.021
181.77	9516.533
182.14	96.031
182.51	65.309
182.88	-9094.439
183.25	419.645
183.62	-13.504
183.99	61.052
184.36	2.057
184.73	-117.078
185.10	35.003
185.46	44.918
185.83	256.630
186.20	46.935
186.57	181.899
186.94	-111.311
187.31	38.448
187.68	-366.197
188.05	-20.251
188.42	-18.606
188.78	-18.578
189.15	-25.458
189.52	-24.072
189.89	-26.043
190.26	-32.903
190.63	-8.935
191.00	2.046
191.37	13.722
191.73	28.655
192.10	41.945
192.47	43.581
192.84	46.377
193.21	51.022
193.58	46.244
193.94	46.761
194.31	33.882
194.68	32.479
195.05	27.530
195.42	25.365
195.79	15.547
196.15	5.143
196.52	12.340
196.89	-0.751
197.26	1.270
197.63	-18.651
198.00	-23.622
198.36	-10.037
198.73	-10.783
199.10	-8.091
199.47	-0.505
199.84	5.026
200.20	25.958
200.57	18.577
200.94	14.997
201.31	7.516
201.68	32.353
202.04	29.316
202.41	31.966
202.78	25.592
203.15	26.261
203.51	9.432
203.88	5.656
204.25	-15.391
204.62	0.668
204.98	7.089
205.35	5.415
205.72	11.248
206.09	17.555
206.46	21.590
206.82	17.911
207.19	6.227
207.56	11.520
207.92	18.869
208.29	29.385
208.66	20.329
209.03	23.731
209.39	23.299
209.76	16.041
210.13	23.594
210.50	13.603
210.86	27.038
211.23	45.403
211.60	45.683
211.96	40.287
212.33	28.113
212.70	28.568
213.07	22.088
213.43	24.595
213.80	17.903
214.17	3.285
214.53	15.320
214.90	15.231
215.27	4.057
215.63	-9.032
216.00	-16.834
216.37	-2.242
216.74	-7.572
217.10	-8.681
217.47	-15.977
217.84	-14.700
218.20	2.967
218.57	0.027
218.94	-8.161
219.30	-9.460
219.67	-1.688
220.04	0.549
220.40	-1.135
220.77	-3.086
221.13	-6.110
221.50	-9.744
221.87	-1.979
222.23	-8.159
222.60	-6.137
222.97	-9.954
223.33	-15.285
223.70	-14.703
224.07	-10.615
224.43	-7.525
224.80	-2.268
225.16	-0.145
225.53	4.072
225.90	-0.765
226.26	-2.832
226.63	-5.526
226.99	-1.843
227.36	0.930
227.73	1.462
228.09	-1.605
228.46	-4.136
228.82	-4.510
229.19	-3.235
229.56	-6.001
229.92	-3.077
230.29	-0.306
230.65	1.236
231.02	-0.204
231.38	-2.578
231.75	-2.797
232.12	0.730
232.48	2.655
232.85	1.502
233.21	2.490
233.58	4.445
233.94	4.976
234.31	2.151
234.68	0.109
235.04	-0.016
235.41	0.104
235.77	0.079
236.14	-2.148
236.50	-4.755
236.87	-4.626
237.23	-5.755
237.60	-5.160
237.96	-5.631
238.33	-2.937
238.69	-1.626
239.06	-1.442
239.42	-0.654
239.79	-0.921
240.15	0.220
240.52	1.772
240.88	2.452
241.25	2.774
241.61	2.114
241.98	2.564
242.34	1.976
242.71	2.204
243.07	2.144
243.44	1.896
243.80	2.331
244.17	2.115
244.53	2.086
244.90	1.773
245.26	1.996
245.63	2.220
245.99	2.239
246.36	2.462
246.72	1.884
247.09	2.031
247.45	2.102
247.81	1.732
248.18	1.333
248.54	0.939
248.91	0.943
249.27	0.606
249.64	0.336
250.00	-0.305
250.36	-0.199
250.73	0.528
251.09	0.585
251.46	0.755
251.82	1.278
252.19	2.028
252.55	2.039
252.91	2.366
253.28	2.061
253.64	2.358
254.01	2.902
254.37	2.519
254.73	2.808
255.10	2.768
255.46	2.590
255.83	1.971
256.19	1.933
256.55	1.917
256.92	1.918
257.28	1.872
257.65	1.956
258.01	2.011
258.37	2.003
258.74	1.807
259.10	1.788
259.46	1.845
259.83	2.093
260.19	1.850
260.55	1.874
260.92	1.702
261.28	1.677
261.64	1.443
262.01	1.192
262.37	1.034
262.73	0.723
263.10	0.598
263.46	0.894
263.82	0.710
264.19	0.801
264.55	0.705
264.91	0.871
265.28	1.090
265.64	0.882
266.00	0.625
266.37	0.782
266.73	1.155
267.09	1.177
267.46	1.097
267.82	1.141
268.18	1.404
268.54	1.572
268.91	1.780
269.27	1.728
269.63	2.013
270.00	2.385
270.36	2.170
270.72	1.941
271.08	1.728
271.45	1.505
271.81	1.766
272.17	1.655
272.53	1.698
272.90	1.136
273.26	1.210
273.62	1.272
273.98	1.011
274.35	0.929
274.71	1.307
275.07	1.458
275.43	1.823
275.80	1.653
276.16	1.889
276.52	1.599
276.88	1.942
277.25	1.771
277.61	1.678
277.97	1.594
278.33	1.530
278.69	1.189
279.06	1.387
279.42	0.882
279.78	0.707
280.14	0.665
280.50	0.871
280.87	0.970
281.23	1.227
281.59	1.269
281.95	1.381
282.31	1.749
282.68	1.943
283.04	1.798
283.40	2.072
283.76	2.116
284.12	1.958
284.48	1.959
284.85	1.924
285.21	1.746
285.57	1.773
285.93	1.838
286.29	1.663
286.65	1.600
287.02	1.638
287.38	1.647
287.74	1.732
288.10	1.811
288.46	1.781
288.82	1.660
289.18	1.734
289.54	1.715
289.91	1.797
290.27	1.844
290.63	1.923
290.99	1.920
291.35	1.847
291.71	2.253
292.07	2.322
292.43	2.377
292.79	2.740
293.16	2.761
293.52	2.692
293.88	2.674
294.24	2.683
294.60	2.585
294.96	2.607
295.32	2.671
295.68	2.244
296.04	2.294
296.40	2.263
296.76	2.083
297.12	2.078
297.49	2.190
297.85	2.298
298.21	2.392
298.57	2.374
298.93	2.385
299.29	2.418
299.65	2.557
300.01	2.580
300.37	2.518
300.73	2.615
301.09	2.687
301.45	2.746
301.81	2.713
302.17	2.613
302.53	2.671
302.89	2.693
303.25	2.562
303.61	2.661
303.97	2.537
304.33	2.597
304.69	2.483
305.05	2.410
305.41	2.271
305.77	2.191
306.13	2.227
306.49	2.208
306.85	2.170
307.21	2.281
307.57	2.307
307.93	2.405
308.29	2.464
308.65	2.438
309.01	2.479
309.37	2.659
309.73	2.651
310.09	2.656
310.45	2.621
310.81	2.657
311.17	2.426
311.53	2.337
311.89	2.324
312.25	2.292
312.61	2.378
312.96	2.313
313.32	2.135
313.68	2.094
314.04	2.061
314.40	2.179
314.76	2.176
315.12	2.428
315.48	2.489
315.84	2.350
316.20	2.418
316.56	2.439
316.92	2.417
317.27	2.354
317.63	2.351
317.99	2.239
318.35	2.130
318.71	2.180
319.07	2.122
319.43	2.174
319.79	2.186
320.15	2.100
320.50	1.964
320.86	2.124
321.22	2.282
321.58	2.475
321.94	2.550
322.30	2.724
322.66	2.694
323.01	2.687
323.37	2.599
323.73	2.621
324.09	2.700
324.45	2.829
324.81	2.762
325.17	2.712
325.52	2.614
325.88	2.678
326.24	2.682
326.60	2.844
326.96	3.014
327.31	2.977
327.67	3.035
328.03	3.054
328.39	3.094
328.75	3.178
329.11	3.313
329.46	3.359
329.82	3.400
330.18	3.361
330.54	3.296
330.90	3.269
331.25	3.427
331.61	3.444
331.97	3.403
332.33	3.451
332.68	3.391
333.04	3.345
333.40	3.395
333.76	3.438
334.11	3.463
334.47	3.378
334.83	3.335
335.19	3.337
335.54	3.514
335.90	3.542
336.26	3.449
336.62	3.528
336.97	3.540
337.33	3.523
337.69	3.474
338.05	3.452
338.40	3.562
338.76	3.600
339.12	3.517
339.48	3.469
339.83	3.419
340.19	3.443
340.55	3.390
340.90	3.314
341.26	3.236
341.62	3.238
341.97	3.269
342.33	3.266
342.69	3.300
343.04	3.372
343.40	3.284
343.76	3.457
344.12	3.607
344.47	3.708
344.83	3.711
345.19	3.722
345.54	3.805
345.90	3.876
346.26	3.770
346.61	3.801
346.97	3.796
347.32	3.922
347.68	3.842
348.04	3.731
348.39	3.746
348.75	3.880
349.11	3.957
349.46	4.023
349.82	4.003
350.18	4.104
350.53	4.036
350.89	4.101
351.24	4.046
351.60	4.071
351.96	4.068
352.31	4.035
352.67	4.006
353.02	4.011
353.38	3.929
353.74	3.870
354.09	3.868
354.45	3.966
354.80	3.945
355.16	3.958
355.52	3.955
355.87	3.931
356.23	3.899
356.58	3.912
356.94	3.928
357.29	3.906
357.65	3.912
358.00	3.896
358.36	3.842
358.72	3.866
359.07	3.898
359.43	3.997
359.78	4.104
360.14	4.121
360.49	4.079
360.85	4.026
361.20	4.085
361.56	4.110
361.91	4.126
362.27	4.129
362.62	4.080
362.98	4.044
363.33	3.974
363.69	3.878
364.04	3.931
364.40	4.006
364.75	4.045
365.11	4.058
365.46	4.075
365.82	4.061
366.17	4.015
366.53	4.062
366.88	4.029
367.24	4.062
367.59	4.093
367.95	4.094
368.30	4.037
368.66	4.028
369.01	3.999
369.37	4.000
369.72	4.027
370.08	4.116
370.43	4.061
370.78	4.086
371.14	4.063
371.49	4.105
371.85	4.054
372.20	4.094
372.56	4.142
372.91	4.114
373.26	4.089
373.62	4.080
373.97	4.083
374.33	4.114
374.68	4.123
375.03	4.119
375.39	4.033
375.74	4.062
376.10	4.029
376.45	4.025
376.80	4.063
377.16	4.089
377.51	4.087
377.87	4.008
378.22	4.008
378.57	4.041
378.93	4.047
379.28	4.140
379.63	4.158
379.99	4.172
380.34	4.163
380.70	4.162
381.05	4.168
381.40	4.200
381.76	4.225
382.11	4.234
382.46	4.158
382.82	4.096
383.17	4.089
383.52	4.060
383.88	4.042
384.23	4.023
384.58	4.007
384.94	3.970
385.29	3.960
385.64	4.004
385.99	4.002
386.35	4.082
386.70	4.120
387.05	4.083
387.41	4.067
387.76	4.044
388.11	4.027
388.47	4.033
388.82	4.020
389.17	3.972
389.52	3.956
389.88	3.934
390.23	3.903
390.58	3.879
390.93	3.864
391.29	3.868
391.64	3.906
391.99	3.875
392.34	3.859
392.70	3.862
393.05	3.885
393.40	3.819
393.75	3.806
394.11	3.746
394.46	3.742
394.81	3.699
395.16	3.620
395.52	3.541
395.87	3.490
396.22	3.444
396.57	3.422
396.92	3.362
397.28	3.391
397.63	3.361
397.98	3.385
398.33	3.343
398.68	3.361
399.04	3.404
399.39	3.385
399.74	3.431
400.09	3.423
400.44	3.386
400.80	3.368
401.15	3.304
401.50	3.296
401.85	3.305
402.20	3.315
402.55	3.307
402.90	3.241
403.26	3.270
403.61	3.247
403.96	3.222
404.31	3.245
404.66	3.276
405.01	3.292
405.36	3.289
405.72	3.229
406.07	3.229
406.42	3.190
406.77	3.208
407.12	3.176
407.47	3.192
407.82	3.181
408.17	3.120
408.53	3.081
408.88	3.100
409.23	3.079
409.58	3.049
409.93	3.035
410.28	3.030
410.63	2.994
410.98	3.010
411.33	2.948
411.68	2.942
412.03	2.958
412.38	2.969
412.73	2.942
413.09	2.931
413.44	2.948
413.79	2.908
414.14	2.888
414.49	2.911
414.84	2.889
415.19	2.909
415.54	2.910
415.89	2.903
416.24	2.881
416.59	2.865
416.94	2.866
417.29	2.854
417.64	2.843
417.99	2.850
418.34	2.835
418.69	2.814
419.04	2.787
419.39	2.772
419.74	2.769
420.09	2.762
420.44	2.744
420.79	2.721
421.14	2.705
421.49	2.702
421.84	2.699
422.19	2.688
422.54	2.696
422.89	2.684
423.24	2.680
423.59	2.650
423.94	2.637
424.29	2.630
424.64	2.611
424.99	2.602
425.34	2.599
425.68	2.568
426.03	2.566
426.38	2.558
426.73	2.571
427.08	2.543
427.43	2.565
427.78	2.579
428.13	2.594
428.48	2.611
428.83	2.614
429.18	2.611
429.53	2.622
429.87	2.604
430.22	2.565
430.57	2.557
430.92	2.562
431.27	2.543
431.62	2.511
431.97	2.480
432.32	2.472
432.67	2.465
433.01	2.456
433.36	2.454
433.71	2.449
434.06	2.466
434.41	2.503
434.76	2.515
435.11	2.515
435.45	2.531
435.80	2.541
436.15	2.552
436.50	2.565
436.85	2.556
437.20	2.540
437.54	2.542
437.89	2.527
438.24	2.507
438.59	2.495
438.94	2.499
439.29	2.503
439.63	2.483
439.98	2.470
440.33	2.456
440.68	2.456
441.03	2.442
441.37	2.436
441.72	2.451
442.07	2.433
442.42	2.429
442.76	2.417
443.11	2.405
443.46	2.420
443.81	2.420
444.16	2.408
444.50	2.398
444.85	2.414
445.20	2.405
445.55	2.385
445.89	2.369
446.24	2.348
446.59	2.342
446.94	2.322
447.28	2.305
447.63	2.283
447.98	2.271
448.32	2.274
448.67	2.245
449.02	2.235
449.37	2.217
449.71	2.202
450.06	2.205
450.41	2.201
450.75	2.198
451.10	2.185
451.45	2.181
451.79	2.180
452.14	2.169
452.49	2.169
452.84	2.182
453.18	2.182
453.53	2.189
453.88	2.180
454.22	2.179
454.57	2.197
454.92	2.221
455.26	2.247
455.61	2.245
455.95	2.249
456.30	2.268
456.65	2.256
456.99	2.269
457.34	2.279
457.69	2.308
458.03	2.303
458.38	2.290
458.73	2.290
459.07	2.290
459.42	2.301
459.76	2.308
460.11	2.291
460.46	2.299
460.80	2.308
461.15	2.300
461.49	2.284
461.84	2.290
462.19	2.305
462.53	2.311
462.88	2.308
463.22	2.318
463.57	2.316
463.91	2.337
464.26	2.375
464.61	2.377
464.95	2.400
465.30	2.410
465.64	2.434
465.99	2.446
466.33	2.454
466.68	2.458
467.02	2.460
467.37	2.467
467.71	2.466
468.06	2.461
468.41	2.474
468.75	2.481
469.10	2.473
469.44	2.462
469.79	2.451
470.13	2.450
470.48	2.441
470.82	2.434
471.17	2.434
471.51	2.432
471.86	2.400
472.20	2.389
472.55	2.394
472.89	2.390
473.23	2.383
473.58	2.376
473.92	2.376
474.27	2.373
474.61	2.372
474.96	2.365
475.30	2.347
475.65	2.346
475.99	2.344
476.34	2.329
476.68	2.338
477.02	2.330
477.37	2.337
477.71	2.317
478.06	2.335
478.40	2.369
478.75	2.414
479.09	2.473
479.43	2.523
479.78	2.580
480.12	2.635
480.47	2.695
480.81	2.761
481.15	2.827
481.50	2.898
481.84	2.959
482.19	3.020
482.53	3.075
482.87	3.100
483.22	3.104
483.56	3.077
483.90	3.034
484.25	2.974
484.59	2.923
484.94	2.871
485.28	2.822
485.62	2.766
485.97	2.704
486.31	2.644
486.65	2.619
487.00	2.617
487.34	2.633
487.68	2.665
488.03	2.703
488.37	2.731
488.71	2.752
489.06	2.762
489.40	2.769
489.74	2.783
490.09	2.789
490.43	2.785
490.77	2.781
491.11	2.787
491.46	2.798
491.80	2.814
492.14	2.807
492.49	2.827
492.83	2.845
493.17	2.858
493.51	2.892
493.86	2.938
494.20	2.980
494.54	3.019
494.88	3.072
495.23	3.126
495.57	3.173
495.91	3.250
496.25	3.291
496.60	3.350
496.94	3.432
497.28	3.491
497.62	3.562
497.97	3.652
498.31	3.753
498.65	3.831
498.99	3.914
499.33	4.025
499.68	4.141
500.02	4.267
500.36	4.386
500.70	4.507
501.04	4.659
501.39	4.782
501.73	4.925
502.07	5.073
502.41	5.248
502.75	5.425
503.09	5.610
503.44	5.799
503.78	6.001
504.12	6.211
504.46	6.441
504.80	6.640
505.14	6.873
505.49	7.095
505.83	7.324
506.17	7.536
506.51	7.759
506.85	7.979
507.19	8.203
507.53	8.449
507.87	8.688
508.22	8.914
508.56	9.158
508.90	9.423
509.24	9.689
509.58	9.956
509.92	10.241
510.26	10.519
510.60	10.801
510.94	11.093
511.28	11.364
511.63	11.676
511.97	11.981
512.31	12.299
512.65	12.597
512.99	12.926
513.33	13.275
513.67	13.638
514.01	13.995
514.35	14.353
514.69	14.680
515.03	15.007
515.37	15.283
515.71	15.600
516.05	15.875
516.39	16.144
516.73	16.397
517.07	16.623
517.41	16.837
517.75	17.070
518.09	17.289
518.43	17.522
518.77	17.765
519.11	18.047
519.45	18.315
519.79	18.582
520.13	18.903
520.47	19.209
520.81	19.540
521.15	19.858
521.49	20.168
521.83	20.449
522.17	20.735
522.51	21.018
522.85	21.297
523.19	21.598
523.53	21.974
523.87	22.333
524.21	22.682
524.55	23.002
524.89	23.297
525.23	23.564
525.57	23.823
525.91	24.061
526.25	24.286
526.58	24.483
526.92	24.636
527.26	24.745
527.60	24.835
527.94	24.908
528.28	24.986
528.62	25.058
528.96	25.134
529.30	25.222
529.64	25.284
529.97	25.338
530.31	25.393
530.65	25.494
530.99	25.613
531.33	25.737
531.67	25.864
532.01	25.974
532.35	26.073
532.68	26.150
533.02	26.210
533.36	26.299
533.70	26.385
534.04	26.474
534.38	26.554
534.71	26.640
535.05	26.714
535.39	26.802
535.73	26.908
536.07	27.033
536.41	27.206
536.74	27.359
537.08	27.484
537.42	27.624
537.76	27.764
538.10	27.893
538.43	28.026
538.77	28.135
539.11	28.226
539.45	28.322
539.79	28.391
540.12	28.412
540.46	28.432
540.80	28.471
541.14	28.464
541.47	28.468
541.81	28.472
542.15	28.476
542.49	28.485
542.82	28.501
543.16	28.495
543.50	28.503
543.84	28.529
544.17	28.575
544.51	28.630
544.85	28.697
545.18	28.750
545.52	28.793
545.86	28.825
546.20	28.876
546.53	28.916
546.87	28.965
547.21	29.037
547.54	29.105
547.88	29.191
548.22	29.212
548.55	29.282
548.89	29.359
549.23	29.424
549.56	29.470
549.90	29.506
550.24	29.546
550.57	29.567
550.91	29.580
551.25	29.614
551.58	29.626
551.92	29.637
552.26	29.668
552.59	29.668
552.93	29.693
553.27	29.720
553.60	29.751
553.94	29.822
554.27	29.896
554.61	29.949
554.95	30.010
555.28	30.040
555.62	30.097
555.95	30.128
556.29	30.175
556.63	30.195
556.96	30.207
557.30	30.243
557.63	30.243
557.97	30.251
558.31	30.238
558.64	30.221
558.98	30.225
559.31	30.241
559.65	30.241
559.98	30.233
560.32	30.276
560.65	30.270
560.99	30.267
561.33	30.250
561.66	30.246
562.00	30.251
562.33	30.252
562.67	30.249
563.00	30.247
563.34	30.261
563.67	30.261
564.01	30.207
564.34	30.183
564.68	30.177
565.01	30.165
565.35	30.162
565.68	30.133
566.02	30.137
566.35	30.138
566.69	30.125
567.02	30.107
567.36	30.095
567.69	30.081
568.03	30.120
568.36	30.113
568.69	30.104
569.03	30.086
569.36	30.098
569.70	30.072
570.03	30.048
570.37	30.019
570.70	29.983
571.04	29.982
571.37	29.982
571.70	29.969
572.04	29.953
572.37	29.952
572.71	29.921
573.04	29.943
573.37	29.929
573.71	29.948
574.04	29.971
574.38	30.001
574.71	30.021
575.04	30.043
575.38	30.040
575.71	30.047
576.05	30.070
576.38	30.110
576.71	30.091
577.05	30.081
577.38	30.089
577.71	30.081
578.05	30.072
578.38	30.052
578.71	30.061
579.05	30.043
579.38	30.021
579.71	30.008
580.05	29.969
580.38	29.953
580.71	29.988
581.05	29.942
581.38	29.914
581.71	29.906
582.05	29.873
582.38	29.848
582.71	29.847
583.04	29.796
583.38	29.781
583.71	29.741
584.04	29.709
584.38	29.665
584.71	29.614
585.04	29.610
585.37	29.561
585.71	29.533
586.04	29.479
586.37	29.390
586.70	29.385
587.04	29.336
587.37	29.319
587.70	29.300
588.03	29.242
588.37	29.185
588.70	29.116
589.03	29.079
589.36	29.036
589.69	28.965
590.03	28.920
590.36	28.849
590.69	28.791
591.02	28.719
591.35	28.621
591.69	28.543
592.02	28.469
592.35	28.359
592.68	28.266
593.01	28.187
593.35	28.158
593.68	28.126
594.01	28.050
594.34	27.968
594.67	27.888
595.00	27.824
595.34	27.764
595.67	27.754
596.00	27.734
596.33	27.676
596.66	27.604
596.99	27.562
597.32	27.518
597.65	27.520
597.99	27.480
598.32	27.459
598.65	27.454
598.98	27.406
599.31	27.327
599.64	27.281
599.97	27.262
600.30	27.195
600.63	27.081
600.96	26.984
601.30	26.881
601.63	26.810
601.96	26.738
602.29	26.623
602.62	26.584
602.95	26.529
603.28	26.451
603.61	26.367
603.94	26.325
604.27	26.278
604.60	26.211
604.93	26.161
605.26	26.097
605.59	26.066
605.92	26.044
606.25	25.959
606.58	25.914
606.91	25.884
607.24	25.831
607.57	25.764
607.90	25.689
608.23	25.660
608.56	25.638
608.89	25.596
609.22	25.532
609.55	25.471
609.88	25.441
610.21	25.388
610.54	25.338
610.87	25.302
611.20	25.285
611.53	25.320
611.86	25.307
612.19	25.273
612.52	25.214
612.85	25.155
613.18	25.134
613.51	25.077
613.84	25.039
614.17	24.995
614.49	24.954
614.82	24.921
615.15	24.822
615.48	24.783
615.81	24.723
616.14	24.696
616.47	24.671
616.80	24.608
617.13	24.585
617.46	24.496
617.78	24.400
618.11	24.331
618.44	24.280
618.77	24.218
619.10	24.120
619.43	24.054
619.76	24.024
620.09	23.984
620.41	23.939
620.74	23.874
621.07	23.876
621.40	23.822
621.73	23.783
622.06	23.734
622.38	23.702
622.71	23.653
623.04	23.578
623.37	23.484
623.70	23.402
624.02	23.292
624.35	23.269
624.68	23.175
625.01	23.173
625.34	23.095
625.66	23.036
625.99	23.018
626.32	22.971
626.65	22.947
626.98	22.933
627.30	22.946
627.63	22.980
627.96	22.959
628.29	22.931
628.61	22.883
628.94	22.860
629.27	22.843
629.60	22.793
629.92	22.753
630.25	22.728
630.58	22.677
630.91	22.583
631.23	22.527
631.56	22.431
631.89	22.414
632.21	22.377
632.54	22.307
632.87	22.216
633.19	22.144
633.52	22.103
633.85	22.041
634.18	21.990
634.50	21.938
634.83	21.907
635.16	21.875
635.48	21.811
635.81	21.747
636.14	21.741
636.46	21.737
636.79	21.730
637.11	21.710
637.44	21.667
637.77	21.650
638.09	21.609
638.42	21.549
638.75	21.509
639.07	21.486
639.40	21.450
639.73	21.447
640.05	21.445
640.38	21.399
640.70	21.347
641.03	21.352
641.36	21.349
641.68	21.326
642.01	21.310
642.33	21.303
642.66	21.308
642.98	21.301
643.31	21.237
643.64	21.179
643.96	21.147
644.29	21.099
644.61	21.067
644.94	21.032
645.26	20.991
645.59	20.955
645.91	20.942
646.24	20.920
646.56	20.854
646.89	20.801
647.22	20.794
647.54	20.749
647.87	20.722
648.19	20.686
648.52	20.610
648.84	20.594
649.17	20.542
649.49	20.457
649.82	20.372
