OOIBase32 Version 2.0.0.6 Data File
++++++++++++++++++++++++++++++++++++
Date: 01-22-2012, 20:59:26
User: Valued Ocean Optics Customer
Spectrometer Serial Number: USB2E2917
Spectrometer Channel: Master
Integration Time (msec): 4
Spectra Averaged: 10
Boxcar Smoothing: 5
Correct for Electrical Dark: Enabled
Time Normalized: Disabled
Dual-beam Reference: Disabled
Reference Channel: Master
Temperature: Not acquired
Spectrometer Type: S2000
ADC Type: USB2000
Number of Pixels in File: 2048
Graph Title: 
>>>>>Begin Spectral Data<<<<<
180.30	0.000
180.67	0.000
181.03	-192.711
181.40	154.303
181.77	73.544
182.14	-7.478
182.51	1093.569
182.88	-27.128
183.25	-56.729
183.62	182.967
183.99	-19.514
184.36	175.535
184.73	-124.861
185.10	-76.474
185.46	3.503
185.83	119.639
186.20	-41.846
186.57	145.902
186.94	102.333
187.31	142.770
187.68	-1523.548
188.05	-122.915
188.42	77.018
188.78	111.802
189.15	102.812
189.52	96.914
189.89	94.238
190.26	87.353
190.63	100.454
191.00	102.721
191.37	100.548
191.73	146.512
192.10	132.656
192.47	93.332
192.84	106.787
193.21	-32.979
193.58	-27.941
193.94	-78.483
194.31	-12.518
194.68	-0.399
195.05	8.461
195.42	-9.738
195.79	-31.121
196.15	-11.723
196.52	17.448
196.89	12.975
197.26	25.849
197.63	8.005
198.00	11.233
198.36	6.071
198.73	80.555
199.10	51.016
199.47	50.360
199.84	53.351
200.20	44.292
200.57	23.774
200.94	33.873
201.31	38.239
201.68	49.821
202.04	44.717
202.41	39.083
202.78	34.268
203.15	24.696
203.51	21.259
203.88	26.342
204.25	29.388
204.62	27.947
204.98	30.439
205.35	20.496
205.72	0.919
206.09	-40.240
206.46	-0.302
206.82	-24.434
207.19	-35.484
207.56	-50.934
207.92	-76.827
208.29	-41.565
208.66	-27.943
209.03	-43.395
209.39	-20.078
209.76	-14.056
210.13	1.862
210.50	-35.506
210.86	-71.138
211.23	-70.764
211.60	-61.092
211.96	-69.833
212.33	-195.789
212.70	6989.193
213.07	573.476
213.43	512.216
213.80	1352.171
214.17	273.663
214.53	1049.574
214.90	-69.429
215.27	-49.684
215.63	-116.108
216.00	-69.395
216.37	-33.942
216.74	-25.638
217.10	-34.002
217.47	-24.660
217.84	-39.239
218.20	-29.479
218.57	-27.054
218.94	-38.452
219.30	-20.729
219.67	-5.437
220.04	-4.104
220.40	-2.135
220.77	0.078
221.13	3.271
221.50	7.800
221.87	19.905
222.23	29.130
222.60	23.444
222.97	18.181
223.33	8.867
223.70	3.755
224.07	0.528
224.43	1.039
224.80	3.797
225.16	2.005
225.53	4.676
225.90	4.805
226.26	4.626
226.63	4.131
226.99	5.620
227.36	7.137
227.73	8.041
228.09	6.929
228.46	9.328
228.82	9.468
229.19	10.646
229.56	7.679
229.92	7.096
230.29	6.020
230.65	7.485
231.02	5.353
231.38	5.813
231.75	3.935
232.12	4.766
232.48	0.960
232.85	1.439
233.21	1.703
233.58	4.859
233.94	5.719
234.31	6.131
234.68	2.510
235.04	5.468
235.41	4.504
235.77	2.731
236.14	3.159
236.50	5.913
236.87	5.895
237.23	5.320
237.60	3.216
237.96	2.055
238.33	1.268
238.69	3.678
239.06	2.447
239.42	2.486
239.79	4.550
240.15	4.974
240.52	4.429
240.88	3.595
241.25	2.923
241.61	2.474
241.98	2.673
242.34	2.547
242.71	2.433
243.07	3.051
243.44	3.348
243.80	3.049
244.17	2.582
244.53	2.421
244.90	2.945
245.26	3.386
245.63	3.630
245.99	3.804
246.36	4.084
246.72	3.907
247.09	3.679
247.45	3.582
247.81	3.612
248.18	4.025
248.54	4.347
248.91	3.922
249.27	3.697
249.64	4.095
250.00	4.228
250.36	4.392
250.73	4.334
251.09	3.953
251.46	3.567
251.82	3.557
252.19	3.310
252.55	3.438
252.91	4.242
253.28	4.260
253.64	3.404
254.01	3.358
254.37	3.262
254.73	3.704
255.10	3.770
255.46	4.574
255.83	4.838
256.19	4.796
256.55	4.627
256.92	4.497
257.28	4.516
257.65	4.839
258.01	4.737
258.37	4.523
258.74	4.388
259.10	4.657
259.46	4.416
259.83	4.427
260.19	4.700
260.55	4.712
260.92	4.768
261.28	4.769
261.64	4.728
262.01	4.451
262.37	4.616
262.73	4.814
263.10	4.314
263.46	4.689
263.82	4.239
264.19	3.843
264.55	3.935
264.91	3.579
265.28	3.941
265.64	3.734
266.00	4.090
266.37	4.367
266.73	4.410
267.09	4.659
267.46	4.117
267.82	4.421
268.18	4.442
268.54	4.447
268.91	4.733
269.27	4.295
269.63	4.146
270.00	3.787
270.36	3.584
270.72	3.401
271.08	3.338
271.45	3.558
271.81	3.719
272.17	3.920
272.53	4.072
272.90	4.019
273.26	4.128
273.62	4.541
273.98	4.924
274.35	4.749
274.71	4.553
275.07	4.755
275.43	5.044
275.80	4.887
276.16	4.857
276.52	4.595
276.88	4.512
277.25	4.435
277.61	4.346
277.97	4.334
278.33	4.589
278.69	4.811
279.06	4.551
279.42	4.146
279.78	4.005
280.14	3.891
280.50	3.881
280.87	3.723
281.23	3.623
281.59	3.585
281.95	3.474
282.31	3.267
282.68	3.120
283.04	3.129
283.40	3.117
283.76	3.134
284.12	2.892
284.48	2.818
284.85	2.971
285.21	3.074
285.57	2.994
285.93	2.981
286.29	2.922
286.65	2.991
287.02	3.248
287.38	3.372
287.74	3.275
288.10	3.475
288.46	3.486
288.82	3.261
289.18	3.017
289.54	2.987
289.91	3.004
290.27	3.288
290.63	3.426
290.99	3.183
291.35	3.130
291.71	3.215
292.07	3.253
292.43	3.255
292.79	3.458
293.16	3.840
293.52	3.900
293.88	4.049
294.24	3.955
294.60	3.874
294.96	3.852
295.32	3.858
295.68	3.755
296.04	3.837
296.40	3.846
296.76	3.843
297.12	3.944
297.49	4.136
297.85	4.249
298.21	4.327
298.57	4.237
298.93	4.397
299.29	4.394
299.65	4.634
300.01	4.529
300.37	4.660
300.73	4.654
301.09	4.566
301.45	4.383
301.81	4.186
302.17	4.189
302.53	4.321
302.89	4.246
303.25	4.316
303.61	4.398
303.97	4.563
304.33	4.665
304.69	5.028
305.05	5.033
305.41	5.112
305.77	5.170
306.13	5.269
306.49	5.497
306.85	5.716
307.21	5.630
307.57	5.399
307.93	5.223
308.29	5.166
308.65	4.740
309.01	4.831
309.37	4.737
309.73	4.840
310.09	4.765
310.45	4.668
310.81	4.552
311.17	4.688
311.53	4.767
311.89	4.844
312.25	4.789
312.61	5.056
312.96	5.040
313.32	5.085
313.68	4.889
314.04	5.011
314.40	4.866
314.76	4.963
315.12	4.878
315.48	4.934
315.84	4.757
316.20	4.766
316.56	4.717
316.92	4.612
317.27	4.754
317.63	4.773
317.99	4.646
318.35	4.836
318.71	4.831
319.07	4.996
319.43	4.903
319.79	5.043
320.15	5.146
320.50	5.314
320.86	5.387
321.22	5.400
321.58	5.434
321.94	5.504
322.30	5.630
322.66	5.692
323.01	5.579
323.37	5.822
323.73	5.893
324.09	6.163
324.45	5.971
324.81	6.067
325.17	6.103
325.52	6.280
325.88	6.340
326.24	6.111
326.60	6.205
326.96	6.352
327.31	6.274
327.67	6.447
328.03	6.273
328.39	6.334
328.75	6.401
329.11	6.504
329.46	6.474
329.82	6.550
330.18	6.760
330.54	6.745
330.90	6.780
331.25	6.830
331.61	6.709
331.97	6.724
332.33	6.765
332.68	6.868
333.04	6.923
333.40	6.974
333.76	6.951
334.11	6.952
334.47	6.954
334.83	7.003
335.19	7.031
335.54	7.077
335.90	6.994
336.26	7.085
336.62	7.088
336.97	6.992
337.33	7.007
337.69	6.971
338.05	7.009
338.40	7.005
338.76	7.059
339.12	7.014
339.48	6.973
339.83	7.083
340.19	7.101
340.55	7.000
340.90	6.982
341.26	7.006
341.62	6.994
341.97	6.998
342.33	7.026
342.69	7.002
343.04	7.015
343.40	7.138
343.76	7.105
344.12	7.063
344.47	7.005
344.83	7.048
345.19	7.060
345.54	7.220
345.90	7.114
346.26	7.067
346.61	6.898
346.97	6.975
347.32	6.940
347.68	7.088
348.04	7.166
348.39	7.298
348.75	7.274
349.11	7.229
349.46	7.163
349.82	7.258
350.18	7.272
350.53	7.483
350.89	7.450
351.24	7.436
351.60	7.361
351.96	7.288
352.31	7.268
352.67	7.283
353.02	7.307
353.38	7.386
353.74	7.396
354.09	7.406
354.45	7.374
354.80	7.409
355.16	7.455
355.52	7.451
355.87	7.482
356.23	7.514
356.58	7.507
356.94	7.574
357.29	7.559
357.65	7.528
358.00	7.570
358.36	7.488
358.72	7.460
359.07	7.438
359.43	7.410
359.78	7.453
360.14	7.447
360.49	7.524
360.85	7.476
361.20	7.485
361.56	7.543
361.91	7.539
362.27	7.629
362.62	7.655
362.98	7.693
363.33	7.793
363.69	7.815
364.04	7.768
364.40	7.685
364.75	7.713
365.11	7.637
365.46	7.640
365.82	7.562
366.17	7.488
366.53	7.487
366.88	7.483
367.24	7.430
367.59	7.371
367.95	7.385
368.30	7.477
368.66	7.507
369.01	7.610
369.37	7.593
369.72	7.664
370.08	7.694
370.43	7.703
370.78	7.713
371.14	7.703
371.49	7.769
371.85	7.777
372.20	7.748
372.56	7.753
372.91	7.651
373.26	7.727
373.62	7.730
373.97	7.783
374.33	7.768
374.68	7.800
375.03	7.775
375.39	7.729
375.74	7.776
376.10	7.804
376.45	7.820
376.80	7.885
377.16	7.795
377.51	7.817
377.87	7.810
378.22	7.859
378.57	7.846
378.93	7.871
379.28	7.869
379.63	7.869
379.99	7.870
380.34	7.879
380.70	7.920
381.05	7.968
381.40	7.962
381.76	7.952
382.11	7.908
382.46	7.876
382.82	7.909
383.17	7.946
383.52	7.927
383.88	7.968
384.23	7.947
384.58	7.944
384.94	7.974
385.29	8.037
385.64	8.055
385.99	8.062
386.35	8.098
386.70	8.044
387.05	8.034
387.41	8.079
387.76	8.020
388.11	7.976
388.47	7.926
388.82	7.938
389.17	7.882
389.52	7.841
389.88	7.879
390.23	7.879
390.58	7.869
390.93	7.873
391.29	7.913
391.64	7.953
391.99	7.990
392.34	7.970
392.70	7.926
393.05	7.879
393.40	7.881
393.75	7.842
394.11	7.784
394.46	7.790
394.81	7.748
395.16	7.662
395.52	7.595
395.87	7.558
396.22	7.566
396.57	7.532
396.92	7.553
397.28	7.515
397.63	7.467
397.98	7.510
398.33	7.516
398.68	7.516
399.04	7.475
399.39	7.485
399.74	7.500
400.09	7.497
400.44	7.470
400.80	7.447
401.15	7.448
401.50	7.457
401.85	7.432
402.20	7.373
402.55	7.357
402.90	7.348
403.26	7.336
403.61	7.300
403.96	7.272
404.31	7.290
404.66	7.254
405.01	7.234
405.36	7.221
405.72	7.192
406.07	7.190
406.42	7.214
406.77	7.195
407.12	7.175
407.47	7.175
407.82	7.160
408.17	7.105
408.53	7.120
408.88	7.127
409.23	7.114
409.58	7.084
409.93	7.094
410.28	7.041
410.63	7.035
410.98	7.006
411.33	6.955
411.68	6.939
412.03	6.920
412.38	6.879
412.73	6.848
413.09	6.795
413.44	6.771
413.79	6.722
414.14	6.711
414.49	6.674
414.84	6.650
415.19	6.615
415.54	6.586
415.89	6.546
416.24	6.522
416.59	6.476
416.94	6.464
417.29	6.412
417.64	6.385
417.99	6.328
418.34	6.290
418.69	6.230
419.04	6.201
419.39	6.173
419.74	6.157
420.09	6.121
420.44	6.098
420.79	6.044
421.14	6.014
421.49	5.993
421.84	5.976
422.19	5.949
422.54	5.949
422.89	5.934
423.24	5.895
423.59	5.875
423.94	5.870
424.29	5.864
424.64	5.875
424.99	5.926
425.34	5.918
425.68	5.934
426.03	5.955
426.38	5.960
426.73	5.967
427.08	5.967
427.43	5.951
427.78	5.942
428.13	5.911
428.48	5.924
428.83	5.870
429.18	5.856
429.53	5.840
429.87	5.834
430.22	5.821
430.57	5.805
430.92	5.802
431.27	5.790
431.62	5.762
431.97	5.767
432.32	5.736
432.67	5.737
433.01	5.743
433.36	5.735
433.71	5.719
434.06	5.735
434.41	5.742
434.76	5.759
435.11	5.808
435.45	5.822
435.80	5.799
436.15	5.807
436.50	5.792
436.85	5.781
437.20	5.760
437.54	5.753
437.89	5.737
438.24	5.708
438.59	5.698
438.94	5.647
439.29	5.649
439.63	5.656
439.98	5.644
440.33	5.634
440.68	5.624
441.03	5.623
441.37	5.593
441.72	5.563
442.07	5.556
442.42	5.528
442.76	5.526
443.11	5.493
443.46	5.468
443.81	5.438
444.16	5.427
444.50	5.413
444.85	5.394
445.20	5.387
445.55	5.370
445.89	5.346
446.24	5.324
446.59	5.307
446.94	5.314
447.28	5.321
447.63	5.318
447.98	5.285
448.32	5.251
448.67	5.243
449.02	5.227
449.37	5.231
449.71	5.232
450.06	5.261
450.41	5.260
450.75	5.232
451.10	5.223
451.45	5.236
451.79	5.265
452.14	5.284
452.49	5.279
452.84	5.278
453.18	5.280
453.53	5.282
453.88	5.282
454.22	5.282
454.57	5.267
454.92	5.259
455.26	5.246
455.61	5.233
455.95	5.238
456.30	5.262
456.65	5.268
456.99	5.264
457.34	5.272
457.69	5.273
458.03	5.264
458.38	5.280
458.73	5.294
459.07	5.318
459.42	5.352
459.76	5.372
460.11	5.382
460.46	5.402
460.80	5.425
461.15	5.449
461.49	5.456
461.84	5.505
462.19	5.531
462.53	5.552
462.88	5.553
463.22	5.556
463.57	5.579
463.91	5.605
464.26	5.661
464.61	5.679
464.95	5.705
465.30	5.727
465.64	5.751
465.99	5.790
466.33	5.805
466.68	5.829
467.02	5.859
467.37	5.871
467.71	5.867
468.06	5.857
468.41	5.875
468.75	5.890
469.10	5.921
469.44	5.933
469.79	5.930
470.13	5.953
470.48	5.971
470.82	5.984
471.17	5.981
471.51	5.985
471.86	5.980
472.20	5.965
472.55	5.954
472.89	5.934
473.23	5.905
473.58	5.884
473.92	5.859
474.27	5.833
474.61	5.805
474.96	5.793
475.30	5.787
475.65	5.768
475.99	5.775
476.34	5.748
476.68	5.740
477.02	5.735
477.37	5.730
477.71	5.721
478.06	5.725
478.40	5.746
478.75	5.786
479.09	5.811
479.43	5.860
479.78	5.896
480.12	5.951
480.47	6.005
480.81	6.058
481.15	6.116
481.50	6.182
481.84	6.254
482.19	6.327
482.53	6.382
482.87	6.396
483.22	6.356
483.56	6.286
483.90	6.210
484.25	6.149
484.59	6.120
484.94	6.082
485.28	6.033
485.62	5.971
485.97	5.895
486.31	5.836
486.65	5.824
487.00	5.873
487.34	5.968
487.68	6.059
488.03	6.136
488.37	6.157
488.71	6.192
489.06	6.222
489.40	6.247
489.74	6.273
490.09	6.300
490.43	6.330
490.77	6.364
491.11	6.389
491.46	6.435
491.80	6.475
492.14	6.534
492.49	6.587
492.83	6.641
493.17	6.716
493.51	6.795
493.86	6.882
494.20	6.961
494.54	7.041
494.88	7.138
495.23	7.229
495.57	7.322
495.91	7.420
496.25	7.505
496.60	7.610
496.94	7.722
497.28	7.862
497.62	7.982
497.97	8.143
498.31	8.312
498.65	8.473
498.99	8.653
499.33	8.838
499.68	9.039
500.02	9.257
500.36	9.484
500.70	9.691
501.04	9.891
501.39	10.136
501.73	10.364
502.07	10.592
502.41	10.837
502.75	11.096
503.09	11.351
503.44	11.629
503.78	11.888
504.12	12.166
504.46	12.450
504.80	12.763
505.14	13.048
505.49	13.384
505.83	13.715
506.17	14.051
506.51	14.356
506.85	14.673
507.19	14.986
507.53	15.332
507.87	15.692
508.22	16.077
508.56	16.442
508.90	16.827
509.24	17.170
509.58	17.530
509.92	17.887
510.26	18.289
510.60	18.706
510.94	19.114
511.28	19.552
511.63	19.962
511.97	20.368
512.31	20.820
512.65	21.283
512.99	21.791
513.33	22.308
513.67	22.817
514.01	23.320
514.35	23.827
514.69	24.305
515.03	24.758
515.37	25.199
515.71	25.626
516.05	26.008
516.39	26.365
516.73	26.713
517.07	27.067
517.41	27.420
517.75	27.799
518.09	28.147
518.43	28.514
518.77	28.914
519.11	29.296
519.45	29.700
519.79	30.119
520.13	30.577
520.47	31.064
520.81	31.552
521.15	32.049
521.49	32.491
521.83	32.880
522.17	33.277
522.51	33.624
522.85	34.036
523.19	34.517
523.53	35.013
523.87	35.545
524.21	36.016
524.55	36.454
524.89	36.863
525.23	37.252
525.57	37.659
525.91	37.991
526.25	38.321
526.58	38.629
526.92	38.867
527.26	39.090
527.60	39.242
527.94	39.406
528.28	39.564
528.62	39.700
528.96	39.834
529.30	39.962
529.64	40.131
529.97	40.291
530.31	40.455
530.65	40.658
530.99	40.845
531.33	41.064
531.67	41.261
532.01	41.450
532.35	41.651
532.68	41.841
533.02	41.984
533.36	42.110
533.70	42.247
534.04	42.379
534.38	42.503
534.71	42.682
535.05	42.815
535.39	42.933
535.73	43.112
536.07	43.261
536.41	43.466
536.74	43.672
537.08	43.888
537.42	44.086
537.76	44.285
538.10	44.478
538.43	44.614
538.77	44.784
539.11	44.959
539.45	45.074
539.79	45.201
540.12	45.286
540.46	45.357
540.80	45.381
541.14	45.419
541.47	45.452
541.81	45.491
542.15	45.540
542.49	45.605
542.82	45.644
543.16	45.672
543.50	45.723
543.84	45.745
544.17	45.809
544.51	45.928
544.85	46.010
545.18	46.086
545.52	46.134
545.86	46.194
546.20	46.234
546.53	46.334
546.87	46.452
547.21	46.502
547.54	46.643
547.88	46.760
548.22	46.861
548.55	46.972
548.89	47.012
549.23	47.108
549.56	47.181
549.90	47.232
550.24	47.276
550.57	47.291
550.91	47.392
551.25	47.402
551.58	47.415
551.92	47.434
552.26	47.515
552.59	47.611
552.93	47.647
553.27	47.665
553.60	47.702
553.94	47.712
554.27	47.796
554.61	47.796
554.95	47.861
555.28	47.893
555.62	47.904
555.95	47.889
556.29	47.905
556.63	47.952
556.96	48.027
557.30	48.098
557.63	48.092
557.97	48.062
558.31	48.079
558.64	48.051
558.98	48.052
559.31	48.082
559.65	48.056
559.98	48.029
560.32	48.011
560.65	47.954
560.99	47.902
561.33	47.868
561.66	47.832
562.00	47.808
562.33	47.775
562.67	47.743
563.00	47.675
563.34	47.645
563.67	47.625
564.01	47.572
564.34	47.547
564.68	47.548
565.01	47.533
565.35	47.538
565.68	47.492
566.02	47.448
566.35	47.428
566.69	47.423
567.02	47.378
567.36	47.328
567.69	47.272
568.03	47.231
568.36	47.153
568.69	47.176
569.03	47.111
569.36	47.059
569.70	47.005
570.03	46.955
570.37	46.905
570.70	46.899
571.04	46.856
571.37	46.841
571.70	46.832
572.04	46.791
572.37	46.718
572.71	46.672
573.04	46.659
573.37	46.642
573.71	46.614
574.04	46.619
574.38	46.597
574.71	46.557
575.04	46.542
575.38	46.544
575.71	46.547
576.05	46.540
576.38	46.568
576.71	46.533
577.05	46.545
577.38	46.530
577.71	46.503
578.05	46.417
578.38	46.441
578.71	46.365
579.05	46.265
579.38	46.194
579.71	46.159
580.05	46.107
580.38	46.041
580.71	45.992
581.05	45.960
581.38	45.901
581.71	45.926
582.05	45.823
582.38	45.761
582.71	45.709
583.04	45.714
583.38	45.630
583.71	45.524
584.04	45.504
584.38	45.400
584.71	45.285
585.04	45.159
585.37	45.009
585.71	44.947
586.04	44.876
586.37	44.818
586.70	44.687
587.04	44.615
587.37	44.531
587.70	44.391
588.03	44.262
588.37	44.217
588.70	44.163
589.03	44.100
589.36	44.000
589.69	43.902
590.03	43.762
590.36	43.658
590.69	43.537
591.02	43.420
591.35	43.347
591.69	43.251
592.02	43.093
592.35	42.972
592.68	42.843
593.01	42.728
593.35	42.617
593.68	42.542
594.01	42.424
594.34	42.269
594.67	42.179
595.00	42.024
595.34	41.936
595.67	41.832
596.00	41.760
596.33	41.687
596.66	41.646
596.99	41.596
597.32	41.537
597.65	41.458
597.99	41.442
598.32	41.372
598.65	41.307
598.98	41.233
599.31	41.187
599.64	41.057
599.97	40.953
600.30	40.800
600.63	40.678
600.96	40.555
601.30	40.441
601.63	40.328
601.96	40.255
602.29	40.201
602.62	40.101
602.95	40.002
603.28	39.928
603.61	39.821
603.94	39.739
604.27	39.685
604.60	39.612
604.93	39.568
605.26	39.494
605.59	39.402
605.92	39.370
606.25	39.334
606.58	39.252
606.91	39.137
607.24	39.088
607.57	39.053
607.90	39.003
608.23	38.900
608.56	38.879
608.89	38.831
609.22	38.779
609.55	38.706
609.88	38.630
610.21	38.641
610.54	38.688
610.87	38.636
611.20	38.593
611.53	38.530
611.86	38.529
612.19	38.452
612.52	38.403
612.85	38.376
613.18	38.311
613.51	38.258
613.84	38.157
614.17	38.064
614.49	38.002
614.82	37.917
615.15	37.848
615.48	37.783
615.81	37.738
616.14	37.718
616.47	37.654
616.80	37.606
617.13	37.564
617.46	37.485
617.78	37.345
618.11	37.313
618.44	37.338
618.77	37.250
619.10	37.131
619.43	37.079
619.76	36.974
620.09	36.905
620.41	36.804
620.74	36.692
621.07	36.624
621.40	36.637
621.73	36.543
622.06	36.402
622.38	36.327
622.71	36.270
623.04	36.127
623.37	36.036
623.70	35.925
624.02	35.835
624.35	35.798
624.68	35.709
625.01	35.554
625.34	35.483
625.66	35.427
625.99	35.377
626.32	35.343
626.65	35.348
626.98	35.289
627.30	35.250
627.63	35.235
627.96	35.167
628.29	35.181
628.61	35.191
628.94	35.152
629.27	35.048
629.60	35.033
629.92	34.996
630.25	34.867
630.58	34.848
630.91	34.746
631.23	34.696
631.56	34.682
631.89	34.578
632.21	34.501
632.54	34.445
632.87	34.453
633.19	34.325
633.52	34.241
633.85	34.212
634.18	34.102
634.50	34.094
634.83	34.035
635.16	33.914
635.48	33.864
635.81	33.856
636.14	33.810
636.46	33.747
636.79	33.750
637.11	33.730
637.44	33.713
637.77	33.714
638.09	33.668
638.42	33.623
638.75	33.583
639.07	33.503
639.40	33.433
639.73	33.394
640.05	33.333
640.38	33.220
640.70	33.149
641.03	33.117
641.36	33.080
641.68	33.035
642.01	32.984
642.33	32.977
642.66	32.915
642.98	32.844
643.31	32.823
643.64	32.814
643.96	32.827
644.29	32.813
644.61	32.757
644.94	32.713
645.26	32.683
645.59	32.690
645.91	32.620
646.24	32.635
646.56	32.618
646.89	32.535
647.22	32.423
647.54	32.341
647.87	32.277
648.19	32.186
648.52	32.162
648.84	32.052
