OOIBase32 Version 2.0.0.6 Data File
++++++++++++++++++++++++++++++++++++
Date: 01-22-2012, 12:52:00
User: Valued Ocean Optics Customer
Spectrometer Serial Number: USB2E2917
Spectrometer Channel: Master
Integration Time (msec): 5
Spectra Averaged: 10
Boxcar Smoothing: 5
Correct for Electrical Dark: Enabled
Time Normalized: Disabled
Dual-beam Reference: Disabled
Reference Channel: Master
Temperature: Not acquired
Spectrometer Type: S2000
ADC Type: USB2000
Number of Pixels in File: 2048
Graph Title: 
>>>>>Begin Spectral Data<<<<<
180.30	0.000
180.67	0.000
181.03	-19.241
181.40	-83.186
181.77	-80.707
182.14	9.349
182.51	8.341
182.88	41.875
183.25	312.202
183.62	10.476
183.99	24.086
184.36	75.394
184.73	-53.952
185.10	-217.344
185.46	-97.036
185.83	-186.698
186.20	53.581
186.57	-144.768
186.94	-1346.042
187.31	43.332
187.68	555.351
188.05	-344.781
188.42	-233.945
188.78	-321.885
189.15	656.070
189.52	308.812
189.89	150.466
190.26	73.287
190.63	65.252
191.00	46.075
191.37	11.662
191.73	4.437
192.10	2.853
192.47	32.383
192.84	23.831
193.21	17.389
193.58	37.188
193.94	36.896
194.31	54.279
194.68	49.881
195.05	22.418
195.42	47.083
195.79	35.977
196.15	39.209
196.52	14.043
196.89	6.542
197.26	8.387
197.63	-12.037
198.00	-15.675
198.36	-35.201
198.73	-47.826
199.10	-22.855
199.47	-24.597
199.84	-47.198
200.20	-58.152
200.57	-80.230
200.94	-46.362
201.31	-59.253
201.68	-53.988
202.04	-35.963
202.41	-30.810
202.78	-11.509
203.15	-28.718
203.51	-46.748
203.88	-43.504
204.25	-40.241
204.62	-10.029
204.98	-14.373
205.35	-22.144
205.72	-35.186
206.09	-46.969
206.46	-41.132
206.82	-33.556
207.19	-18.039
207.56	0.590
207.92	-0.811
208.29	11.647
208.66	3.329
209.03	7.682
209.39	13.929
209.76	3.835
210.13	-2.280
210.50	-12.815
210.86	-9.514
211.23	-6.522
211.60	-8.490
211.96	4.716
212.33	-10.482
212.70	-13.523
213.07	-18.433
213.43	-10.443
213.80	0.850
214.17	0.028
214.53	15.474
214.90	12.325
215.27	8.144
215.63	-0.540
216.00	-16.319
216.37	-22.899
216.74	-15.129
217.10	-4.371
217.47	-7.729
217.84	1.036
218.20	-2.326
218.57	-11.197
218.94	-5.941
219.30	-6.260
219.67	-2.632
220.04	13.162
220.40	20.706
220.77	17.349
221.13	8.489
221.50	5.600
221.87	0.530
222.23	7.042
222.60	8.414
222.97	7.114
223.33	7.804
223.70	8.593
224.07	4.754
224.43	2.767
224.80	2.861
225.16	5.139
225.53	2.603
225.90	2.970
226.26	0.855
226.63	0.005
226.99	-2.024
227.36	-1.033
227.73	-1.286
228.09	-1.656
228.46	-1.005
228.82	0.152
229.19	1.081
229.56	3.122
229.92	4.049
230.29	6.070
230.65	8.338
231.02	9.479
231.38	8.345
231.75	8.675
232.12	8.626
232.48	9.845
232.85	9.147
233.21	6.840
233.58	4.767
233.94	4.150
234.31	2.821
234.68	1.904
235.04	0.855
235.41	2.052
235.77	-0.049
236.14	0.238
236.50	-1.019
236.87	-0.486
237.23	0.091
237.60	0.951
237.96	0.840
238.33	2.514
238.69	2.483
239.06	3.356
239.42	2.353
239.79	3.214
240.15	2.942
240.52	2.358
240.88	2.164
241.25	2.018
241.61	1.618
241.98	1.543
242.34	1.050
242.71	0.690
243.07	0.176
243.44	1.175
243.80	0.983
244.17	1.137
244.53	1.563
244.90	1.127
245.26	1.146
245.63	1.636
245.99	1.856
246.36	1.445
246.72	1.620
247.09	1.798
247.45	1.563
247.81	1.523
248.18	1.542
248.54	1.418
248.91	1.535
249.27	1.776
249.64	1.347
250.00	0.833
250.36	1.150
250.73	1.124
251.09	1.115
251.46	0.673
251.82	1.102
252.19	1.354
252.55	1.298
252.91	1.887
253.28	1.442
253.64	1.270
254.01	1.510
254.37	1.228
254.73	1.101
255.10	1.194
255.46	1.239
255.83	0.855
256.19	0.393
256.55	0.435
256.92	0.389
257.28	0.340
257.65	0.442
258.01	0.527
258.37	0.876
258.74	1.086
259.10	1.118
259.46	1.104
259.83	1.390
260.19	1.762
260.55	1.953
260.92	1.855
261.28	2.190
261.64	2.209
262.01	2.252
262.37	2.089
262.73	1.768
263.10	1.596
263.46	1.556
263.82	1.183
264.19	0.781
264.55	0.560
264.91	0.717
265.28	0.639
265.64	1.005
266.00	0.825
266.37	1.272
266.73	1.529
267.09	1.897
267.46	1.829
267.82	2.061
268.18	2.238
268.54	2.191
268.91	2.174
269.27	2.269
269.63	2.129
270.00	2.178
270.36	1.845
270.72	1.646
271.08	1.206
271.45	1.601
271.81	1.445
272.17	1.154
272.53	1.192
272.90	1.233
273.26	1.049
273.62	1.059
273.98	1.131
274.35	1.203
274.71	1.193
275.07	1.551
275.43	1.270
275.80	1.277
276.16	1.603
276.52	1.406
276.88	1.606
277.25	2.055
277.61	1.907
277.97	1.812
278.33	1.489
278.69	1.430
279.06	1.319
279.42	1.356
279.78	1.401
280.14	1.486
280.50	1.599
280.87	1.284
281.23	1.055
281.59	1.130
281.95	1.208
282.31	1.298
282.68	1.429
283.04	1.558
283.40	1.471
283.76	1.686
284.12	1.588
284.48	1.813
284.85	1.978
285.21	1.945
285.57	1.774
285.93	1.771
286.29	1.856
286.65	1.695
287.02	1.708
287.38	1.718
287.74	1.434
288.10	1.516
288.46	1.351
288.82	1.442
289.18	1.308
289.54	1.757
289.91	1.952
290.27	2.012
290.63	2.266
290.99	2.096
291.35	2.335
291.71	2.333
292.07	2.309
292.43	2.319
292.79	2.426
293.16	2.634
293.52	2.591
293.88	2.481
294.24	2.424
294.60	2.463
294.96	2.500
295.32	2.390
295.68	2.620
296.04	2.723
296.40	2.781
296.76	2.691
297.12	2.710
297.49	2.635
297.85	2.628
298.21	2.721
298.57	2.678
298.93	2.831
299.29	2.927
299.65	2.970
300.01	2.986
300.37	3.206
300.73	3.399
301.09	3.369
301.45	3.472
301.81	3.501
302.17	3.497
302.53	3.761
302.89	3.788
303.25	3.755
303.61	3.709
303.97	3.693
304.33	3.512
304.69	3.543
305.05	3.622
305.41	3.666
305.77	3.951
306.13	3.937
306.49	3.693
306.85	3.591
307.21	3.626
307.57	3.721
307.93	3.750
308.29	3.783
308.65	3.768
309.01	3.819
309.37	3.741
309.73	3.459
310.09	3.516
310.45	3.456
310.81	3.601
311.17	3.636
311.53	3.628
311.89	3.696
312.25	3.704
312.61	3.646
312.96	3.536
313.32	3.488
313.68	3.636
314.04	3.546
314.40	3.696
314.76	3.533
315.12	3.445
315.48	3.389
315.84	3.380
316.20	3.426
316.56	3.288
316.92	3.369
317.27	3.390
317.63	3.332
317.99	3.386
318.35	3.262
318.71	3.305
319.07	3.288
319.43	3.317
319.79	3.207
320.15	3.121
320.50	3.199
320.86	3.065
321.22	2.982
321.58	3.048
321.94	3.009
322.30	2.940
322.66	2.953
323.01	2.946
323.37	2.849
323.73	2.741
324.09	2.626
324.45	2.481
324.81	2.538
325.17	2.506
325.52	2.478
325.88	2.472
326.24	2.541
326.60	2.477
326.96	2.396
327.31	2.347
327.67	2.367
328.03	2.462
328.39	2.505
328.75	2.441
329.11	2.473
329.46	2.389
329.82	2.355
330.18	2.367
330.54	2.327
330.90	2.389
331.25	2.412
331.61	2.351
331.97	2.273
332.33	2.229
332.68	2.171
333.04	2.253
333.40	2.302
333.76	2.330
334.11	2.292
334.47	2.343
334.83	2.294
335.19	2.207
335.54	2.189
335.90	2.226
336.26	2.192
336.62	2.215
336.97	2.057
337.33	1.875
337.69	1.844
338.05	1.710
338.40	1.539
338.76	1.479
339.12	1.497
339.48	1.527
339.83	1.587
340.19	1.569
340.55	1.609
340.90	1.648
341.26	1.815
341.62	1.711
341.97	1.913
342.33	1.945
342.69	1.990
343.04	1.911
343.40	1.921
343.76	1.874
344.12	1.905
344.47	1.846
344.83	1.889
345.19	1.663
345.54	1.613
345.90	1.412
346.26	1.370
346.61	1.267
346.97	1.282
347.32	1.229
347.68	1.083
348.04	1.038
348.39	0.912
348.75	0.848
349.11	0.886
349.46	0.910
349.82	0.964
350.18	0.977
350.53	1.016
350.89	0.957
351.24	0.898
351.60	0.966
351.96	0.988
352.31	1.112
352.67	1.038
353.02	1.162
353.38	1.232
353.74	1.197
354.09	1.228
354.45	1.238
354.80	1.345
355.16	1.449
355.52	1.456
355.87	1.471
356.23	1.500
356.58	1.605
356.94	1.484
357.29	1.419
357.65	1.436
358.00	1.379
358.36	1.425
358.72	1.449
359.07	1.397
359.43	1.331
359.78	1.272
360.14	1.250
360.49	1.195
360.85	1.147
361.20	1.149
361.56	1.144
361.91	1.160
362.27	0.991
362.62	0.885
362.98	0.833
363.33	0.827
363.69	0.762
364.04	0.661
364.40	0.591
364.75	0.610
365.11	0.553
365.46	0.550
365.82	0.479
366.17	0.639
366.53	0.611
366.88	0.554
367.24	0.560
367.59	0.610
367.95	0.678
368.30	0.720
368.66	0.785
369.01	0.855
369.37	0.844
369.72	0.838
370.08	0.787
370.43	0.793
370.78	0.880
371.14	0.883
371.49	0.912
371.85	0.885
372.20	0.883
372.56	0.870
372.91	0.810
373.26	0.753
373.62	0.768
373.97	0.719
374.33	0.740
374.68	0.692
375.03	0.619
375.39	0.587
375.74	0.555
376.10	0.506
376.45	0.451
376.80	0.472
377.16	0.534
377.51	0.605
377.87	0.721
378.22	0.760
378.57	0.820
378.93	0.950
379.28	0.976
379.63	1.040
379.99	1.106
380.34	1.232
380.70	1.292
381.05	1.289
381.40	1.250
381.76	1.186
382.11	1.193
382.46	1.171
382.82	1.088
383.17	1.086
383.52	1.047
383.88	1.029
384.23	0.920
384.58	0.808
384.94	0.776
385.29	0.744
385.64	0.666
385.99	0.630
386.35	0.615
386.70	0.588
387.05	0.566
387.41	0.529
387.76	0.536
388.11	0.581
388.47	0.609
388.82	0.643
389.17	0.672
389.52	0.706
389.88	0.721
390.23	0.743
390.58	0.815
390.93	0.863
391.29	0.950
391.64	0.987
391.99	0.964
392.34	0.976
392.70	0.940
393.05	0.909
393.40	0.901
393.75	0.856
394.11	0.765
394.46	0.690
394.81	0.596
395.16	0.449
395.52	0.303
395.87	0.190
396.22	0.078
396.57	-0.037
396.92	-0.170
397.28	-0.257
397.63	-0.362
397.98	-0.475
398.33	-0.581
398.68	-0.693
399.04	-0.779
399.39	-0.828
399.74	-0.839
400.09	-0.816
400.44	-0.855
400.80	-0.814
401.15	-0.827
401.50	-0.806
401.85	-0.760
402.20	-0.735
402.55	-0.733
402.90	-0.710
403.26	-0.693
403.61	-0.716
403.96	-0.776
404.31	-0.766
404.66	-0.780
405.01	-0.801
405.36	-0.832
405.72	-0.867
406.07	-0.915
406.42	-0.919
406.77	-0.927
407.12	-0.961
407.47	-1.026
407.82	-1.018
408.17	-1.040
408.53	-1.071
408.88	-1.124
409.23	-1.167
409.58	-1.202
409.93	-1.246
410.28	-1.267
410.63	-1.272
410.98	-1.300
411.33	-1.316
411.68	-1.321
412.03	-1.277
412.38	-1.257
412.73	-1.199
413.09	-1.120
413.44	-0.997
413.79	-0.862
414.14	-0.783
414.49	-0.661
414.84	-0.523
415.19	-0.344
415.54	-0.202
415.89	-0.064
416.24	0.054
416.59	0.187
416.94	0.288
417.29	0.372
417.64	0.453
417.99	0.547
418.34	0.599
418.69	0.649
419.04	0.689
419.39	0.724
419.74	0.750
420.09	0.778
420.44	0.789
420.79	0.803
421.14	0.813
421.49	0.806
421.84	0.816
422.19	0.792
422.54	0.771
422.89	0.759
423.24	0.702
423.59	0.629
423.94	0.557
424.29	0.485
424.64	0.394
424.99	0.301
425.34	0.216
425.68	0.108
426.03	0.030
426.38	-0.041
426.73	-0.143
427.08	-0.184
427.43	-0.192
427.78	-0.173
428.13	-0.164
428.48	-0.113
428.83	-0.087
429.18	-0.056
429.53	-0.045
429.87	-0.028
430.22	-0.023
430.57	-0.004
430.92	0.014
431.27	0.007
431.62	-0.006
431.97	-0.028
432.32	-0.069
432.67	-0.112
433.01	-0.171
433.36	-0.206
433.71	-0.256
434.06	-0.297
434.41	-0.315
434.76	-0.347
435.11	-0.361
435.45	-0.349
435.80	-0.313
436.15	-0.279
436.50	-0.225
436.85	-0.166
437.20	-0.126
437.54	-0.065
437.89	-0.051
438.24	-0.037
438.59	-0.024
438.94	-0.045
439.29	-0.081
439.63	-0.139
439.98	-0.179
440.33	-0.238
440.68	-0.264
441.03	-0.285
441.37	-0.301
441.72	-0.259
442.07	-0.219
442.42	-0.193
442.76	-0.114
443.11	-0.051
443.46	0.014
443.81	0.066
444.16	0.118
444.50	0.136
444.85	0.142
445.20	0.139
445.55	0.088
445.89	0.013
446.24	-0.076
446.59	-0.186
446.94	-0.314
447.28	-0.430
447.63	-0.564
447.98	-0.692
448.32	-0.800
448.67	-0.895
449.02	-1.008
449.37	-1.079
449.71	-1.124
450.06	-1.113
450.41	-1.117
450.75	-1.072
451.10	-1.064
451.45	-1.061
451.79	-1.055
452.14	-1.079
452.49	-1.097
452.84	-1.110
453.18	-1.106
453.53	-1.107
453.88	-1.106
454.22	-1.078
454.57	-1.055
454.92	-1.010
455.26	-0.937
455.61	-0.849
455.95	-0.728
456.30	-0.652
456.65	-0.560
456.99	-0.477
457.34	-0.396
457.69	-0.337
458.03	-0.312
458.38	-0.304
458.73	-0.320
459.07	-0.343
459.42	-0.417
459.76	-0.531
460.11	-0.625
460.46	-0.743
460.80	-0.892
461.15	-1.043
461.49	-1.180
461.84	-1.306
462.19	-1.413
462.53	-1.478
462.88	-1.545
463.22	-1.542
463.57	-1.518
463.91	-1.496
464.26	-1.474
464.61	-1.437
464.95	-1.416
465.30	-1.383
465.64	-1.366
465.99	-1.356
466.33	-1.363
466.68	-1.399
467.02	-1.453
467.37	-1.513
467.71	-1.566
468.06	-1.602
468.41	-1.655
468.75	-1.689
469.10	-1.763
469.44	-1.815
469.79	-1.873
470.13	-1.933
470.48	-1.984
470.82	-2.035
471.17	-2.077
471.51	-2.120
471.86	-2.163
472.20	-2.206
472.55	-2.254
472.89	-2.279
473.23	-2.303
473.58	-2.326
473.92	-2.318
474.27	-2.303
474.61	-2.282
474.96	-2.283
475.30	-2.275
475.65	-2.269
475.99	-2.260
476.34	-2.240
476.68	-2.228
477.02	-2.189
477.37	-2.148
477.71	-2.092
478.06	-1.980
478.40	-1.785
478.75	-1.502
479.09	-1.196
479.43	-0.919
479.78	-0.642
480.12	-0.401
480.47	-0.162
480.81	0.034
481.15	0.227
481.50	0.405
481.84	0.564
482.19	0.699
482.53	0.808
482.87	0.864
483.22	0.898
483.56	0.883
483.90	0.845
484.25	0.780
484.59	0.707
484.94	0.622
485.28	0.522
485.62	0.405
485.97	0.291
486.31	0.170
486.65	0.077
487.00	-0.017
487.34	-0.092
487.68	-0.164
488.03	-0.232
488.37	-0.291
488.71	-0.354
489.06	-0.409
489.40	-0.453
489.74	-0.521
490.09	-0.594
490.43	-0.684
490.77	-0.787
491.11	-0.908
491.46	-1.042
491.80	-1.179
492.14	-1.328
492.49	-1.493
492.83	-1.661
493.17	-1.833
493.51	-1.991
493.86	-2.147
494.20	-2.274
494.54	-2.350
494.88	-2.376
495.23	-2.369
495.57	-2.364
495.91	-2.346
496.25	-2.335
496.60	-2.336
496.94	-2.360
497.28	-2.379
497.62	-2.402
497.97	-2.440
498.31	-2.483
498.65	-2.520
498.99	-2.562
499.33	-2.608
499.68	-2.642
500.02	-2.678
500.36	-2.703
500.70	-2.707
501.04	-2.731
501.39	-2.733
501.73	-2.722
502.07	-2.729
502.41	-2.724
502.75	-2.706
503.09	-2.677
503.44	-2.658
503.78	-2.621
504.12	-2.585
504.46	-2.527
504.80	-2.471
505.14	-2.437
505.49	-2.405
505.83	-2.350
506.17	-2.319
506.51	-2.290
506.85	-2.263
507.19	-2.256
507.53	-2.221
507.87	-2.206
508.22	-2.228
508.56	-2.231
508.90	-2.236
509.24	-2.232
509.58	-2.236
509.92	-2.247
510.26	-2.269
510.60	-2.281
510.94	-2.282
511.28	-2.320
511.63	-2.341
511.97	-2.347
512.31	-2.354
512.65	-2.349
512.99	-2.325
513.33	-2.290
513.67	-2.235
514.01	-2.149
514.35	-2.060
514.69	-1.967
515.03	-1.861
515.37	-1.774
515.71	-1.695
516.05	-1.622
516.39	-1.563
516.73	-1.525
517.07	-1.506
517.41	-1.507
517.75	-1.534
518.09	-1.585
518.43	-1.657
518.77	-1.753
519.11	-1.844
519.45	-1.946
519.79	-2.048
520.13	-2.136
520.47	-2.202
520.81	-2.231
521.15	-2.218
521.49	-2.199
521.83	-2.136
522.17	-2.047
522.51	-1.931
522.85	-1.790
523.19	-1.588
523.53	-1.354
523.87	-1.121
524.21	-0.897
524.55	-0.708
524.89	-0.553
525.23	-0.409
525.57	-0.282
525.91	-0.177
526.25	-0.084
526.58	-0.004
526.92	0.048
527.26	0.075
527.60	0.073
527.94	0.040
528.28	0.004
528.62	-0.037
528.96	-0.088
529.30	-0.153
529.64	-0.229
529.97	-0.297
530.31	-0.381
530.65	-0.465
530.99	-0.545
531.33	-0.608
531.67	-0.657
532.01	-0.699
532.35	-0.747
532.68	-0.802
533.02	-0.869
533.36	-0.919
533.70	-0.983
534.04	-1.046
534.38	-1.115
534.71	-1.203
535.05	-1.291
535.39	-1.366
535.73	-1.434
536.07	-1.469
536.41	-1.450
536.74	-1.400
537.08	-1.337
537.42	-1.255
537.76	-1.152
538.10	-1.035
538.43	-0.920
538.77	-0.809
539.11	-0.714
539.45	-0.630
539.79	-0.562
540.12	-0.531
540.46	-0.520
540.80	-0.530
541.14	-0.562
541.47	-0.605
541.81	-0.679
542.15	-0.758
542.49	-0.852
542.82	-0.956
543.16	-1.069
543.50	-1.198
543.84	-1.315
544.17	-1.425
544.51	-1.522
544.85	-1.619
545.18	-1.711
545.52	-1.800
545.86	-1.895
546.20	-1.997
546.53	-2.109
546.87	-2.243
547.21	-2.360
547.54	-2.468
547.88	-2.558
548.22	-2.622
548.55	-2.687
548.89	-2.756
549.23	-2.801
549.56	-2.824
549.90	-2.837
550.24	-2.831
550.57	-2.798
550.91	-2.779
551.25	-2.783
551.58	-2.783
551.92	-2.823
552.26	-2.843
552.59	-2.882
552.93	-2.930
553.27	-2.960
553.60	-3.016
553.94	-3.065
554.27	-3.094
554.61	-3.141
554.95	-3.181
555.28	-3.243
555.62	-3.239
555.95	-3.261
556.29	-3.257
556.63	-3.241
556.96	-3.250
557.30	-3.247
557.63	-3.235
557.97	-3.271
558.31	-3.274
558.64	-3.272
558.98	-3.271
559.31	-3.288
559.65	-3.292
559.98	-3.282
560.32	-3.301
560.65	-3.310
560.99	-3.279
561.33	-3.271
561.66	-3.236
562.00	-3.201
562.33	-3.145
562.67	-3.077
563.00	-3.031
563.34	-2.971
563.67	-2.940
564.01	-2.895
564.34	-2.857
564.68	-2.840
565.01	-2.831
565.35	-2.834
565.68	-2.862
566.02	-2.895
566.35	-2.927
566.69	-2.947
567.02	-2.972
567.36	-2.981
567.69	-3.004
568.03	-3.020
568.36	-3.017
568.69	-3.028
569.03	-3.041
569.36	-3.037
569.70	-3.018
570.03	-3.030
570.37	-3.020
570.70	-3.053
571.04	-3.090
571.37	-3.119
571.70	-3.172
572.04	-3.260
572.37	-3.329
572.71	-3.386
573.04	-3.472
573.37	-3.580
573.71	-3.680
574.04	-3.844
574.38	-3.987
574.71	-4.143
575.04	-4.322
575.38	-4.512
575.71	-4.694
576.05	-4.884
576.38	-5.110
576.71	-5.334
577.05	-5.578
577.38	-5.806
577.71	-6.032
578.05	-6.244
578.38	-6.478
578.71	-6.698
579.05	-6.887
579.38	-7.089
579.71	-7.292
580.05	-7.464
580.38	-7.635
580.71	-7.807
581.05	-8.004
581.38	-8.209
581.71	-8.386
582.05	-8.533
582.38	-8.694
582.71	-8.825
583.04	-8.910
583.38	-8.988
583.71	-9.038
584.04	-9.055
584.38	-9.064
584.71	-9.032
585.04	-8.943
585.37	-8.881
585.71	-8.788
586.04	-8.682
586.37	-8.590
586.70	-8.516
587.04	-8.462
587.37	-8.435
587.70	-8.465
588.03	-8.514
588.37	-8.585
588.70	-8.691
589.03	-8.779
589.36	-8.947
589.69	-9.100
590.03	-9.291
590.36	-9.502
590.69	-9.674
591.02	-9.852
591.35	-9.984
591.69	-10.032
592.02	-10.044
592.35	-10.029
592.68	-10.019
593.01	-9.978
593.35	-9.938
593.68	-9.864
594.01	-9.859
594.34	-9.874
594.67	-9.872
595.00	-9.904
595.34	-9.990
595.67	-10.187
596.00	-10.423
596.33	-10.734
596.66	-11.086
596.99	-11.491
597.32	-11.949
597.65	-12.349
597.99	-12.762
598.32	-13.161
598.65	-13.540
598.98	-13.862
599.31	-14.009
599.64	-14.045
599.97	-13.968
600.30	-13.806
600.63	-13.586
600.96	-13.355
601.30	-13.128
601.63	-12.939
601.96	-12.801
602.29	-12.701
602.62	-12.656
602.95	-12.670
603.28	-12.778
603.61	-12.945
603.94	-13.175
604.27	-13.427
604.60	-13.668
604.93	-13.937
605.26	-14.146
605.59	-14.356
605.92	-14.549
606.25	-14.706
606.58	-14.842
606.91	-14.940
607.24	-14.976
607.57	-14.972
607.90	-15.018
608.23	-15.067
608.56	-15.221
608.89	-15.450
609.22	-15.727
609.55	-16.057
609.88	-16.481
610.21	-16.936
610.54	-17.406
610.87	-17.970
611.20	-18.545
611.53	-19.088
611.86	-19.692
612.19	-20.125
612.52	-20.511
612.85	-20.818
613.18	-21.035
613.51	-21.168
613.84	-21.282
614.17	-21.394
614.49	-21.429
614.82	-21.513
615.15	-21.571
615.48	-21.634
615.81	-21.703
616.14	-21.781
616.47	-21.874
616.80	-21.900
617.13	-22.046
617.46	-22.166
617.78	-22.302
618.11	-22.454
618.44	-22.604
618.77	-22.729
619.10	-22.786
619.43	-22.895
619.76	-22.946
620.09	-22.982
620.41	-23.082
620.74	-23.063
621.07	-22.960
621.40	-22.776
621.73	-22.518
622.06	-22.206
622.38	-21.878
622.71	-21.538
623.04	-21.145
623.37	-20.714
623.70	-20.298
624.02	-19.879
624.35	-19.445
624.68	-19.128
625.01	-18.895
625.34	-18.703
625.66	-18.527
625.99	-18.495
626.32	-18.489
626.65	-18.587
626.98	-18.759
627.30	-19.037
627.63	-19.313
627.96	-19.661
628.29	-20.048
628.61	-20.386
628.94	-20.732
629.27	-21.135
629.60	-21.421
629.92	-21.768
630.25	-21.908
630.58	-22.126
630.91	-22.216
631.23	-22.349
631.56	-22.413
631.89	-22.480
632.21	-22.588
632.54	-22.683
632.87	-22.789
633.19	-23.024
633.52	-23.202
633.85	-23.527
634.18	-23.864
634.50	-24.251
634.83	-24.655
635.16	-25.096
635.48	-25.500
635.81	-25.925
636.14	-26.451
636.46	-26.931
636.79	-27.333
637.11	-27.753
637.44	-28.178
637.77	-28.509
638.09	-28.768
638.42	-28.956
638.75	-29.206
639.07	-29.538
639.40	-29.821
639.73	-30.080
640.05	-30.349
640.38	-30.505
640.70	-30.610
641.03	-30.665
