OOIBase32 Version 2.0.0.6 Data File
++++++++++++++++++++++++++++++++++++
Date: 01-19-2012, 15:21:01
User: Valued Ocean Optics Customer
Spectrometer Serial Number: USB2E2917
Spectrometer Channel: Master
Integration Time (msec): 5
Spectra Averaged: 10
Boxcar Smoothing: 5
Correct for Electrical Dark: Enabled
Time Normalized: Disabled
Dual-beam Reference: Disabled
Reference Channel: Master
Temperature: Not acquired
Spectrometer Type: S2000
ADC Type: USB2000
Number of Pixels in File: 2048
Graph Title: 
>>>>>Begin Spectral Data<<<<<
180.30	0.000
180.67	0.000
181.03	6555.971
181.40	-55.639
181.77	3.978
182.14	-52.128
182.51	-372.250
182.88	205.522
183.25	55.417
183.62	-75.494
183.99	37.324
184.36	-6.300
184.73	-317.233
185.10	159.673
185.46	104.542
185.83	72.466
186.20	-624.011
186.57	-4.432
186.94	-1379.142
187.31	-35.677
187.68	-10.390
188.05	45.046
188.42	16.440
188.78	18.406
189.15	44.203
189.52	47.262
189.89	60.562
190.26	16.021
190.63	16.086
191.00	18.775
191.37	10.265
191.73	-8.899
192.10	-29.293
192.47	-21.347
192.84	-29.204
193.21	-42.395
193.58	-17.122
193.94	-36.571
194.31	-49.772
194.68	-46.316
195.05	-64.066
195.42	-70.437
195.79	-29.323
196.15	-12.007
196.52	-6.267
196.89	3.893
197.26	-6.786
197.63	-10.415
198.00	3.026
198.36	23.364
198.73	35.036
199.10	36.302
199.47	47.233
199.84	45.468
200.20	56.024
200.57	57.254
200.94	53.649
201.31	53.968
201.68	43.482
202.04	42.430
202.41	36.971
202.78	16.134
203.15	19.374
203.51	-2.488
203.88	-15.776
204.25	-3.041
204.62	-16.967
204.98	-38.185
205.35	-46.199
205.72	-16.666
206.09	-52.073
206.46	-48.484
206.82	-23.311
207.19	-15.507
207.56	-5.342
207.92	-10.033
208.29	-36.847
208.66	-43.642
209.03	-43.809
209.39	-40.798
209.76	-71.796
210.13	-58.619
210.50	-27.342
210.86	-37.496
211.23	-37.286
211.60	-61.359
211.96	-49.788
212.33	-27.630
212.70	-54.371
213.07	-28.365
213.43	-29.922
213.80	-21.319
214.17	-23.299
214.53	-19.054
214.90	-7.229
215.27	-27.898
215.63	-23.269
216.00	-36.149
216.37	-58.679
216.74	-7.935
217.10	-13.209
217.47	1.893
217.84	9.069
218.20	8.963
218.57	-7.404
218.94	-5.259
219.30	2.772
219.67	4.450
220.04	10.600
220.40	11.221
220.77	12.910
221.13	9.268
221.50	6.801
221.87	3.317
222.23	2.617
222.60	4.188
222.97	-4.378
223.33	-0.805
223.70	-2.489
224.07	-1.754
224.43	-1.114
224.80	-2.360
225.16	-1.761
225.53	0.588
225.90	-0.230
226.26	-0.855
226.63	-1.396
226.99	-0.462
227.36	-1.942
227.73	-1.989
228.09	-0.571
228.46	0.021
228.82	0.280
229.19	0.130
229.56	-1.731
229.92	-0.727
230.29	0.493
230.65	0.587
231.02	0.865
231.38	2.495
231.75	2.273
232.12	-0.268
232.48	-1.419
232.85	-1.946
233.21	-1.277
233.58	0.403
233.94	-0.131
234.31	-0.641
234.68	-0.129
235.04	0.319
235.41	0.296
235.77	1.235
236.14	2.690
236.50	2.394
236.87	2.696
237.23	2.187
237.60	1.509
237.96	2.159
238.33	2.564
238.69	3.157
239.06	3.421
239.42	3.082
239.79	2.730
240.15	2.738
240.52	3.172
240.88	3.128
241.25	3.402
241.61	3.454
241.98	3.296
242.34	3.027
242.71	2.884
243.07	2.588
243.44	2.660
243.80	2.836
244.17	2.505
244.53	2.580
244.90	2.665
245.26	2.453
245.63	2.647
245.99	2.427
246.36	2.614
246.72	2.654
247.09	2.682
247.45	2.807
247.81	2.938
248.18	3.163
248.54	3.490
248.91	3.487
249.27	3.631
249.64	3.314
250.00	3.732
250.36	3.707
250.73	3.919
251.09	4.134
251.46	3.918
251.82	3.753
252.19	3.390
252.55	2.725
252.91	2.898
253.28	3.104
253.64	3.427
254.01	2.871
254.37	2.620
254.73	2.351
255.10	2.535
255.46	2.656
255.83	2.780
256.19	2.806
256.55	2.945
256.92	2.956
257.28	2.867
257.65	2.857
258.01	3.022
258.37	2.819
258.74	2.785
259.10	2.629
259.46	2.457
259.83	2.413
260.19	2.540
260.55	2.346
260.92	2.190
261.28	2.185
261.64	1.963
262.01	1.822
262.37	2.005
262.73	1.739
263.10	1.448
263.46	1.607
263.82	1.603
264.19	1.536
264.55	1.682
264.91	1.690
265.28	1.797
265.64	1.718
266.00	1.904
266.37	1.926
266.73	2.208
267.09	2.582
267.46	2.721
267.82	2.797
268.18	2.882
268.54	2.817
268.91	2.956
269.27	2.706
269.63	2.820
270.00	2.539
270.36	2.495
270.72	2.643
271.08	2.471
271.45	2.328
271.81	2.090
272.17	1.794
272.53	2.027
272.90	2.080
273.26	2.285
273.62	2.330
273.98	2.625
274.35	2.793
274.71	2.282
275.07	2.204
275.43	2.359
275.80	2.682
276.16	2.715
276.52	2.596
276.88	2.558
277.25	2.390
277.61	2.374
277.97	2.442
278.33	2.460
278.69	2.923
279.06	2.929
279.42	2.715
279.78	2.444
280.14	2.649
280.50	2.747
280.87	2.517
281.23	2.434
281.59	2.160
281.95	2.040
282.31	1.965
282.68	1.903
283.04	1.952
283.40	2.152
283.76	2.256
284.12	2.258
284.48	2.154
284.85	2.482
285.21	2.619
285.57	2.792
285.93	2.846
286.29	2.886
286.65	2.837
287.02	2.882
287.38	2.812
287.74	2.880
288.10	2.887
288.46	2.914
288.82	2.600
289.18	2.383
289.54	2.442
289.91	2.505
290.27	2.588
290.63	2.637
290.99	2.939
291.35	3.187
291.71	3.156
292.07	3.375
292.43	3.521
292.79	3.872
293.16	4.366
293.52	4.699
293.88	4.696
294.24	4.768
294.60	4.973
294.96	5.085
295.32	5.411
295.68	5.758
296.04	5.870
296.40	6.139
296.76	6.242
297.12	6.473
297.49	6.600
297.85	6.884
298.21	7.098
298.57	7.200
298.93	7.432
299.29	7.404
299.65	7.552
300.01	7.720
300.37	7.607
300.73	7.754
301.09	7.676
301.45	7.728
301.81	7.861
302.17	8.007
302.53	8.103
302.89	8.285
303.25	8.403
303.61	8.457
303.97	8.677
304.33	8.999
304.69	9.035
305.05	9.358
305.41	9.413
305.77	9.378
306.13	9.372
306.49	9.471
306.85	9.227
307.21	9.145
307.57	8.985
307.93	8.794
308.29	8.749
308.65	8.788
309.01	8.634
309.37	8.680
309.73	8.618
310.09	8.668
310.45	8.560
310.81	8.390
311.17	8.275
311.53	8.346
311.89	8.322
312.25	8.061
312.61	7.930
312.96	7.794
313.32	7.789
313.68	7.747
314.04	7.614
314.40	7.575
314.76	7.882
315.12	7.820
315.48	7.737
315.84	7.713
316.20	7.844
316.56	7.745
316.92	7.655
317.27	7.441
317.63	7.501
317.99	7.329
318.35	7.313
318.71	7.137
319.07	7.179
319.43	7.153
319.79	7.117
320.15	6.987
320.50	6.954
320.86	6.973
321.22	6.902
321.58	6.702
321.94	6.694
322.30	6.487
322.66	6.276
323.01	6.101
323.37	5.922
323.73	5.805
324.09	5.657
324.45	5.543
324.81	5.407
325.17	5.249
325.52	5.260
325.88	5.129
326.24	5.026
326.60	4.988
326.96	4.874
327.31	4.673
327.67	4.506
328.03	4.489
328.39	4.412
328.75	4.271
329.11	4.183
329.46	4.071
329.82	4.126
330.18	4.207
330.54	4.305
330.90	4.338
331.25	4.371
331.61	4.460
331.97	4.500
332.33	4.529
332.68	4.634
333.04	4.716
333.40	4.805
333.76	4.819
334.11	4.910
334.47	4.756
334.83	4.826
335.19	4.901
335.54	4.815
335.90	4.802
336.26	4.833
336.62	4.716
336.97	4.717
337.33	4.630
337.69	4.427
338.05	4.241
338.40	4.145
338.76	4.006
339.12	3.994
339.48	3.978
339.83	3.935
340.19	3.862
340.55	3.900
340.90	3.867
341.26	3.864
341.62	3.953
341.97	3.963
342.33	4.029
342.69	4.082
343.04	4.035
343.40	4.070
343.76	4.060
344.12	4.116
344.47	4.044
344.83	3.964
345.19	3.980
345.54	3.975
345.90	4.006
346.26	3.927
346.61	3.874
346.97	3.908
347.32	3.859
347.68	3.805
348.04	3.716
348.39	3.701
348.75	3.691
349.11	3.556
349.46	3.481
349.82	3.355
350.18	3.321
350.53	3.250
350.89	3.056
351.24	2.947
351.60	2.961
351.96	2.907
352.31	2.962
352.67	2.921
353.02	2.885
353.38	2.868
353.74	2.941
354.09	2.980
354.45	3.151
354.80	3.346
355.16	3.454
355.52	3.475
355.87	3.562
356.23	3.539
356.58	3.703
356.94	3.790
357.29	3.843
357.65	3.764
358.00	3.844
358.36	3.793
358.72	3.781
359.07	3.743
359.43	3.668
359.78	3.649
360.14	3.639
360.49	3.550
360.85	3.374
361.20	3.350
361.56	3.388
361.91	3.260
362.27	3.120
362.62	3.004
362.98	2.912
363.33	2.880
363.69	2.688
364.04	2.565
364.40	2.435
364.75	2.460
365.11	2.347
365.46	2.232
365.82	2.123
366.17	2.129
366.53	2.080
366.88	2.145
367.24	2.093
367.59	2.235
367.95	2.293
368.30	2.328
368.66	2.373
369.01	2.486
369.37	2.579
369.72	2.787
370.08	2.820
370.43	2.813
370.78	2.815
371.14	2.844
371.49	2.810
371.85	2.853
372.20	2.850
372.56	2.837
372.91	2.755
373.26	2.694
373.62	2.533
373.97	2.423
374.33	2.409
374.68	2.286
375.03	2.263
375.39	2.187
375.74	2.120
376.10	2.068
376.45	1.994
376.80	1.977
377.16	2.009
377.51	2.048
377.87	2.170
378.22	2.276
378.57	2.381
378.93	2.468
379.28	2.598
379.63	2.717
379.99	2.905
380.34	3.118
380.70	3.209
381.05	3.299
381.40	3.354
381.76	3.364
382.11	3.366
382.46	3.397
382.82	3.432
383.17	3.404
383.52	3.342
383.88	3.251
384.23	3.135
384.58	3.113
384.94	3.069
385.29	3.059
385.64	3.044
385.99	3.025
386.35	3.041
386.70	2.970
387.05	2.878
387.41	2.807
387.76	2.760
388.11	2.718
388.47	2.687
388.82	2.702
389.17	2.689
389.52	2.675
389.88	2.689
390.23	2.708
390.58	2.765
390.93	2.875
391.29	2.978
391.64	3.030
391.99	3.090
392.34	3.124
392.70	3.075
393.05	3.103
393.40	3.093
393.75	3.010
394.11	2.920
394.46	2.836
394.81	2.689
395.16	2.533
395.52	2.373
395.87	2.175
396.22	1.953
396.57	1.741
396.92	1.463
397.28	1.249
397.63	1.009
397.98	0.778
398.33	0.585
398.68	0.452
399.04	0.333
399.39	0.241
399.74	0.230
400.09	0.214
400.44	0.202
400.80	0.249
401.15	0.285
401.50	0.399
401.85	0.478
402.20	0.540
402.55	0.601
402.90	0.654
403.26	0.714
403.61	0.679
403.96	0.679
404.31	0.710
404.66	0.684
405.01	0.662
405.36	0.609
405.72	0.547
406.07	0.493
406.42	0.410
406.77	0.308
407.12	0.223
407.47	0.169
407.82	0.132
408.17	0.057
408.53	0.042
408.88	-0.026
409.23	-0.078
409.58	-0.125
409.93	-0.170
410.28	-0.175
410.63	-0.174
410.98	-0.228
411.33	-0.190
411.68	-0.161
412.03	-0.161
412.38	-0.103
412.73	-0.033
413.09	0.096
413.44	0.227
413.79	0.389
414.14	0.572
414.49	0.777
414.84	0.978
415.19	1.156
415.54	1.311
415.89	1.552
416.24	1.722
416.59	1.913
416.94	2.059
417.29	2.201
417.64	2.303
417.99	2.394
418.34	2.459
418.69	2.552
419.04	2.628
419.39	2.697
419.74	2.737
420.09	2.758
420.44	2.771
420.79	2.763
421.14	2.759
421.49	2.745
421.84	2.721
422.19	2.709
422.54	2.673
422.89	2.630
423.24	2.566
423.59	2.489
423.94	2.402
424.29	2.293
424.64	2.201
424.99	2.079
425.34	1.980
425.68	1.878
426.03	1.738
426.38	1.623
426.73	1.517
427.08	1.456
427.43	1.401
427.78	1.409
428.13	1.419
428.48	1.462
428.83	1.504
429.18	1.551
429.53	1.579
429.87	1.625
430.22	1.640
430.57	1.658
430.92	1.643
431.27	1.644
431.62	1.622
431.97	1.602
432.32	1.518
432.67	1.476
433.01	1.387
433.36	1.311
433.71	1.237
434.06	1.171
434.41	1.126
434.76	1.129
435.11	1.119
435.45	1.140
435.80	1.180
436.15	1.257
436.50	1.291
436.85	1.381
437.20	1.428
437.54	1.494
437.89	1.523
438.24	1.544
438.59	1.541
438.94	1.501
439.29	1.446
439.63	1.369
439.98	1.314
440.33	1.280
440.68	1.238
441.03	1.221
441.37	1.223
441.72	1.275
442.07	1.295
442.42	1.344
442.76	1.436
443.11	1.523
443.46	1.637
443.81	1.698
444.16	1.756
444.50	1.775
444.85	1.788
445.20	1.759
445.55	1.701
445.89	1.633
446.24	1.529
446.59	1.385
446.94	1.239
447.28	1.064
447.63	0.881
447.98	0.703
448.32	0.537
448.67	0.363
449.02	0.222
449.37	0.096
449.71	0.056
450.06	0.030
450.41	0.065
450.75	0.063
451.10	0.069
451.45	0.082
451.79	0.078
452.14	0.078
452.49	0.090
452.84	0.088
453.18	0.082
453.53	0.056
453.88	0.038
454.22	0.036
454.57	0.100
454.92	0.173
455.26	0.298
455.61	0.435
455.95	0.568
456.30	0.676
456.65	0.804
456.99	0.920
457.34	1.030
457.69	1.137
458.03	1.174
458.38	1.196
458.73	1.175
459.07	1.107
459.42	1.008
459.76	0.891
460.11	0.772
460.46	0.621
460.80	0.449
461.15	0.266
461.49	0.086
461.84	-0.052
462.19	-0.188
462.53	-0.296
462.88	-0.364
463.22	-0.386
463.57	-0.396
463.91	-0.382
464.26	-0.361
464.61	-0.310
464.95	-0.282
465.30	-0.272
465.64	-0.267
465.99	-0.264
466.33	-0.275
466.68	-0.299
467.02	-0.346
467.37	-0.392
467.71	-0.461
468.06	-0.506
468.41	-0.577
468.75	-0.641
469.10	-0.721
469.44	-0.816
469.79	-0.901
470.13	-0.985
470.48	-1.061
470.82	-1.127
471.17	-1.193
471.51	-1.242
471.86	-1.306
472.20	-1.365
472.55	-1.447
472.89	-1.486
473.23	-1.514
473.58	-1.566
473.92	-1.578
474.27	-1.587
474.61	-1.590
474.96	-1.574
475.30	-1.567
475.65	-1.590
475.99	-1.590
476.34	-1.546
476.68	-1.529
477.02	-1.497
477.37	-1.442
477.71	-1.354
478.06	-1.218
478.40	-0.982
478.75	-0.627
479.09	-0.222
479.43	0.214
479.78	0.613
480.12	0.972
480.47	1.303
480.81	1.599
481.15	1.879
481.50	2.123
481.84	2.353
482.19	2.555
482.53	2.710
482.87	2.816
483.22	2.850
483.56	2.834
483.90	2.762
484.25	2.662
484.59	2.543
484.94	2.406
485.28	2.281
485.62	2.123
485.97	1.954
486.31	1.776
486.65	1.617
487.00	1.484
487.34	1.366
487.68	1.275
488.03	1.183
488.37	1.103
488.71	1.025
489.06	0.935
489.40	0.857
489.74	0.761
490.09	0.658
490.43	0.525
490.77	0.385
491.11	0.223
491.46	0.052
491.80	-0.131
492.14	-0.316
492.49	-0.518
492.83	-0.742
493.17	-0.970
493.51	-1.189
493.86	-1.405
494.20	-1.584
494.54	-1.711
494.88	-1.761
495.23	-1.815
495.57	-1.821
495.91	-1.839
496.25	-1.845
496.60	-1.864
496.94	-1.891
497.28	-1.942
497.62	-1.998
497.97	-2.059
498.31	-2.134
498.65	-2.225
498.99	-2.292
499.33	-2.376
499.68	-2.450
500.02	-2.534
500.36	-2.602
500.70	-2.667
501.04	-2.711
501.39	-2.750
501.73	-2.774
502.07	-2.783
502.41	-2.776
502.75	-2.775
503.09	-2.759
503.44	-2.743
503.78	-2.738
504.12	-2.692
504.46	-2.667
504.80	-2.637
505.14	-2.578
505.49	-2.537
505.83	-2.503
506.17	-2.477
506.51	-2.453
506.85	-2.423
507.19	-2.389
507.53	-2.359
507.87	-2.353
508.22	-2.339
508.56	-2.351
508.90	-2.388
509.24	-2.443
509.58	-2.498
509.92	-2.564
510.26	-2.622
510.60	-2.673
510.94	-2.735
511.28	-2.794
511.63	-2.870
511.97	-2.931
512.31	-2.980
512.65	-3.005
512.99	-2.976
513.33	-2.913
513.67	-2.830
514.01	-2.716
514.35	-2.612
514.69	-2.486
515.03	-2.351
515.37	-2.225
515.71	-2.091
516.05	-1.961
516.39	-1.865
516.73	-1.816
517.07	-1.808
517.41	-1.830
517.75	-1.891
518.09	-1.989
518.43	-2.125
518.77	-2.299
519.11	-2.461
519.45	-2.677
519.79	-2.874
520.13	-3.060
520.47	-3.207
520.81	-3.297
521.15	-3.345
521.49	-3.365
521.83	-3.317
522.17	-3.226
522.51	-3.065
522.85	-2.857
523.19	-2.540
523.53	-2.158
523.87	-1.739
524.21	-1.341
524.55	-1.007
524.89	-0.703
525.23	-0.423
525.57	-0.185
525.91	0.021
526.25	0.197
526.58	0.340
526.92	0.435
527.26	0.479
527.60	0.455
527.94	0.400
528.28	0.333
528.62	0.236
528.96	0.129
529.30	0.017
529.64	-0.126
529.97	-0.277
530.31	-0.441
530.65	-0.590
530.99	-0.737
531.33	-0.848
531.67	-0.927
532.01	-0.995
532.35	-1.077
532.68	-1.164
533.02	-1.286
533.36	-1.399
533.70	-1.521
534.04	-1.628
534.38	-1.792
534.71	-1.962
535.05	-2.126
535.39	-2.297
535.73	-2.453
536.07	-2.518
536.41	-2.526
536.74	-2.454
537.08	-2.330
537.42	-2.180
537.76	-2.014
538.10	-1.816
538.43	-1.599
538.77	-1.394
539.11	-1.214
539.45	-1.058
539.79	-0.941
540.12	-0.867
540.46	-0.843
540.80	-0.868
541.14	-0.915
541.47	-1.018
541.81	-1.130
542.15	-1.278
542.49	-1.460
542.82	-1.673
543.16	-1.899
543.50	-2.146
543.84	-2.383
544.17	-2.595
544.51	-2.761
544.85	-2.939
545.18	-3.096
545.52	-3.276
545.86	-3.466
546.20	-3.677
546.53	-3.867
546.87	-4.089
547.21	-4.304
547.54	-4.516
547.88	-4.732
548.22	-4.948
548.55	-5.102
548.89	-5.222
549.23	-5.320
549.56	-5.388
549.90	-5.395
550.24	-5.380
550.57	-5.344
550.91	-5.304
551.25	-5.293
551.58	-5.271
551.92	-5.264
552.26	-5.309
552.59	-5.362
552.93	-5.442
553.27	-5.520
553.60	-5.600
553.94	-5.690
554.27	-5.746
554.61	-5.817
554.95	-5.877
555.28	-5.932
555.62	-5.967
555.95	-5.956
556.29	-5.949
556.63	-5.907
556.96	-5.872
557.30	-5.823
557.63	-5.803
557.97	-5.779
558.31	-5.755
558.64	-5.742
558.98	-5.711
559.31	-5.680
559.65	-5.676
559.98	-5.649
560.32	-5.613
560.65	-5.574
560.99	-5.508
561.33	-5.421
561.66	-5.329
562.00	-5.215
562.33	-5.051
562.67	-4.940
563.00	-4.812
563.34	-4.659
563.67	-4.516
564.01	-4.410
564.34	-4.287
564.68	-4.201
565.01	-4.129
565.35	-4.093
565.68	-4.070
566.02	-4.091
566.35	-4.058
566.69	-4.050
567.02	-4.043
567.36	-4.021
567.69	-3.987
568.03	-3.968
568.36	-3.934
568.69	-3.888
569.03	-3.796
569.36	-3.723
569.70	-3.618
570.03	-3.531
570.37	-3.469
570.70	-3.420
571.04	-3.385
571.37	-3.328
571.70	-3.297
572.04	-3.294
572.37	-3.305
572.71	-3.336
573.04	-3.347
573.37	-3.373
573.71	-3.435
574.04	-3.480
574.38	-3.554
574.71	-3.637
575.04	-3.769
575.38	-3.861
575.71	-3.956
576.05	-4.049
576.38	-4.149
576.71	-4.259
577.05	-4.406
577.38	-4.509
577.71	-4.607
578.05	-4.702
578.38	-4.805
578.71	-4.882
579.05	-4.935
579.38	-4.979
579.71	-5.024
580.05	-5.069
580.38	-5.073
580.71	-5.102
581.05	-5.133
581.38	-5.126
581.71	-5.098
582.05	-5.081
582.38	-5.033
582.71	-5.011
583.04	-4.983
583.38	-4.985
583.71	-4.922
584.04	-4.878
584.38	-4.791
584.71	-4.688
585.04	-4.606
585.37	-4.541
585.71	-4.402
586.04	-4.271
586.37	-4.156
586.70	-4.055
587.04	-3.928
587.37	-3.838
587.70	-3.784
588.03	-3.682
588.37	-3.644
588.70	-3.632
589.03	-3.573
589.36	-3.594
589.69	-3.616
590.03	-3.653
590.36	-3.648
590.69	-3.630
591.02	-3.637
591.35	-3.620
591.69	-3.619
592.02	-3.551
592.35	-3.447
592.68	-3.381
593.01	-3.234
593.35	-3.131
593.68	-3.011
594.01	-2.926
594.34	-2.849
594.67	-2.796
595.00	-2.725
595.34	-2.680
595.67	-2.687
596.00	-2.715
596.33	-2.771
596.66	-2.887
596.99	-2.992
597.32	-3.123
597.65	-3.227
597.99	-3.337
598.32	-3.421
598.65	-3.492
598.98	-3.551
599.31	-3.541
599.64	-3.519
599.97	-3.378
600.30	-3.211
600.63	-3.062
600.96	-2.920
601.30	-2.783
601.63	-2.634
601.96	-2.514
602.29	-2.429
602.62	-2.349
602.95	-2.282
603.28	-2.235
603.61	-2.268
603.94	-2.319
604.27	-2.368
604.60	-2.392
604.93	-2.441
605.26	-2.463
605.59	-2.514
605.92	-2.530
606.25	-2.561
606.58	-2.598
606.91	-2.604
607.24	-2.595
607.57	-2.554
607.90	-2.523
608.23	-2.518
608.56	-2.541
608.89	-2.612
609.22	-2.668
609.55	-2.757
609.88	-2.830
610.21	-2.934
610.54	-3.050
610.87	-3.185
611.20	-3.348
611.53	-3.476
611.86	-3.598
612.19	-3.670
612.52	-3.780
612.85	-3.795
613.18	-3.792
613.51	-3.847
613.84	-3.843
614.17	-3.862
614.49	-3.809
614.82	-3.797
615.15	-3.815
615.48	-3.806
615.81	-3.810
616.14	-3.786
616.47	-3.785
616.80	-3.816
617.13	-3.780
617.46	-3.797
617.78	-3.784
618.11	-3.821
618.44	-3.830
618.77	-3.810
619.10	-3.798
619.43	-3.811
619.76	-3.784
620.09	-3.772
620.41	-3.745
620.74	-3.702
621.07	-3.693
621.40	-3.636
621.73	-3.562
622.06	-3.505
622.38	-3.432
622.71	-3.384
623.04	-3.281
623.37	-3.201
623.70	-3.091
624.02	-3.010
624.35	-2.931
624.68	-2.834
625.01	-2.778
625.34	-2.737
625.66	-2.701
625.99	-2.678
626.32	-2.639
626.65	-2.652
626.98	-2.657
627.30	-2.715
627.63	-2.788
627.96	-2.896
628.29	-2.963
628.61	-3.046
628.94	-3.129
629.27	-3.154
629.60	-3.202
629.92	-3.265
630.25	-3.295
630.58	-3.352
630.91	-3.357
631.23	-3.357
631.56	-3.370
631.89	-3.371
632.21	-3.338
632.54	-3.374
632.87	-3.376
633.19	-3.390
633.52	-3.422
633.85	-3.471
634.18	-3.511
634.50	-3.552
634.83	-3.576
635.16	-3.584
635.48	-3.610
635.81	-3.712
636.14	-3.727
636.46	-3.826
636.79	-3.872
637.11	-3.925
637.44	-3.954
637.77	-3.958
638.09	-3.964
638.42	-3.992
638.75	-4.010
639.07	-4.091
639.40	-4.156
639.73	-4.191
640.05	-4.220
640.38	-4.279
640.70	-4.289
641.03	-4.260
641.36	-4.292
641.68	-4.353
642.01	-4.420
642.33	-4.414
642.66	-4.364
642.98	-4.267
643.31	-4.204
643.64	-4.149
643.96	-4.048
644.29	-3.957
644.61	-3.897
644.94	-3.809
645.26	-3.666
645.59	-3.540
645.91	-3.517
646.24	-3.439
646.56	-3.421
646.89	-3.405
