OOIBase32 Version 2.0.0.6 Data File
++++++++++++++++++++++++++++++++++++
Date: 01-19-2012, 15:19:57
User: Valued Ocean Optics Customer
Spectrometer Serial Number: USB2E2917
Spectrometer Channel: Master
Integration Time (msec): 5
Spectra Averaged: 10
Boxcar Smoothing: 5
Correct for Electrical Dark: Enabled
Time Normalized: Disabled
Dual-beam Reference: Disabled
Reference Channel: Master
Temperature: Not acquired
Spectrometer Type: S2000
ADC Type: USB2000
Number of Pixels in File: 2048
Graph Title: 
>>>>>Begin Spectral Data<<<<<
180.30	0.000
180.67	0.000
181.03	3228.424
181.40	-14.753
181.77	71.784
182.14	149.736
182.51	267.486
182.88	-4.036
183.25	49.067
183.62	-15.482
183.99	-305.675
184.36	49.479
184.73	-517.969
185.10	436.463
185.46	63.821
185.83	25.401
186.20	-571.751
186.57	-68.937
186.94	267.465
187.31	-66.521
187.68	-162.530
188.05	-68.327
188.42	-39.231
188.78	7.918
189.15	11.139
189.52	12.810
189.89	22.280
190.26	9.103
190.63	5.076
191.00	15.738
191.37	4.749
191.73	-3.804
192.10	-25.501
192.47	-46.050
192.84	-55.804
193.21	-72.761
193.58	-48.893
193.94	-69.105
194.31	-61.540
194.68	-55.046
195.05	-74.923
195.42	-86.726
195.79	-51.350
196.15	-20.875
196.52	-22.496
196.89	-32.021
197.26	-33.266
197.63	-28.624
198.00	-12.062
198.36	-9.126
198.73	13.449
199.10	10.153
199.47	20.708
199.84	8.368
200.20	2.028
200.57	24.974
200.94	37.879
201.31	28.335
201.68	6.738
202.04	4.721
202.41	-7.904
202.78	-44.026
203.15	-49.930
203.51	-58.677
203.88	-90.059
204.25	-81.041
204.62	-101.028
204.98	-122.917
205.35	-139.416
205.72	-58.094
206.09	-66.553
206.46	-41.933
206.82	-48.492
207.19	-23.243
207.56	-20.271
207.92	-9.065
208.29	-21.198
208.66	-35.226
209.03	-49.900
209.39	-53.253
209.76	-116.129
210.13	-130.451
210.50	-109.153
210.86	-82.348
211.23	-87.443
211.60	-111.883
211.96	-114.094
212.33	-75.965
212.70	-89.952
213.07	-61.157
213.43	-64.285
213.80	-48.463
214.17	-39.937
214.53	-38.238
214.90	-28.120
215.27	-49.669
215.63	-40.554
216.00	-53.380
216.37	-76.596
216.74	-33.219
217.10	-38.509
217.47	-31.107
217.84	-20.475
218.20	-17.051
218.57	-25.213
218.94	-21.023
219.30	-9.726
219.67	-15.147
220.04	-6.180
220.40	-4.834
220.77	-9.848
221.13	-7.573
221.50	-3.021
221.87	-6.224
222.23	-13.566
222.60	-15.611
222.97	-16.682
223.33	-15.278
223.70	-11.479
224.07	-8.665
224.43	-5.865
224.80	-3.418
225.16	-4.819
225.53	-2.883
225.90	-2.654
226.26	-1.133
226.63	0.143
226.99	-1.118
227.36	-1.028
227.73	-1.597
228.09	-0.683
228.46	-2.143
228.82	-1.492
229.19	-0.238
229.56	-2.075
229.92	-1.868
230.29	-1.131
230.65	-2.398
231.02	-1.234
231.38	-0.986
231.75	0.009
232.12	-2.035
232.48	-0.369
232.85	-2.158
233.21	-3.342
233.58	-2.197
233.94	-3.265
234.31	-4.874
234.68	-4.152
235.04	-5.609
235.41	-4.677
235.77	-4.255
236.14	-2.732
236.50	-3.703
236.87	-3.211
237.23	-2.297
237.60	-1.748
237.96	-0.018
238.33	1.513
238.69	2.476
239.06	2.538
239.42	1.307
239.79	1.118
240.15	0.801
240.52	1.368
240.88	2.250
241.25	2.383
241.61	2.081
241.98	1.682
242.34	1.468
242.71	0.764
243.07	0.827
243.44	1.610
243.80	1.559
244.17	1.459
244.53	1.408
244.90	0.968
245.26	0.761
245.63	0.922
245.99	0.696
246.36	0.521
246.72	0.622
247.09	0.786
247.45	0.682
247.81	0.858
248.18	1.169
248.54	1.458
248.91	1.530
249.27	1.756
249.64	1.610
250.00	2.103
250.36	2.556
250.73	2.873
251.09	2.722
251.46	2.604
251.82	1.994
252.19	1.527
252.55	0.478
252.91	0.385
253.28	0.112
253.64	0.174
254.01	-0.373
254.37	-0.775
254.73	-0.544
255.10	-0.388
255.46	-0.343
255.83	0.154
256.19	0.115
256.55	0.805
256.92	1.020
257.28	0.964
257.65	1.017
258.01	1.144
258.37	1.122
258.74	0.904
259.10	0.924
259.46	0.848
259.83	0.751
260.19	0.928
260.55	0.663
260.92	0.678
261.28	0.573
261.64	0.376
262.01	0.531
262.37	0.615
262.73	0.746
263.10	0.240
263.46	0.446
263.82	0.341
264.19	0.169
264.55	0.484
264.91	-0.051
265.28	0.446
265.64	0.415
266.00	0.541
266.37	0.464
266.73	0.451
267.09	0.996
267.46	0.955
267.82	1.088
268.18	1.143
268.54	1.145
268.91	1.749
269.27	1.461
269.63	1.706
270.00	1.280
270.36	1.351
270.72	1.452
271.08	1.376
271.45	1.354
271.81	1.157
272.17	1.110
272.53	0.979
272.90	0.856
273.26	0.963
273.62	0.739
273.98	0.875
274.35	0.811
274.71	0.485
275.07	0.196
275.43	0.230
275.80	0.515
276.16	0.371
276.52	0.401
276.88	0.191
277.25	0.083
277.61	0.188
277.97	0.301
278.33	0.459
278.69	0.681
279.06	0.896
279.42	0.670
279.78	0.449
280.14	0.695
280.50	0.757
280.87	0.689
281.23	0.504
281.59	0.240
281.95	-0.046
282.31	-0.227
282.68	-0.298
283.04	-0.206
283.40	0.078
283.76	0.225
284.12	0.283
284.48	0.218
284.85	0.376
285.21	0.461
285.57	0.564
285.93	0.754
286.29	0.793
286.65	0.837
287.02	0.738
287.38	0.440
287.74	0.457
288.10	0.449
288.46	0.501
288.82	0.354
289.18	0.327
289.54	0.407
289.91	0.382
290.27	0.465
290.63	0.467
290.99	0.676
291.35	0.923
291.71	0.917
292.07	0.889
292.43	0.927
292.79	1.017
293.16	1.257
293.52	1.483
293.88	1.466
294.24	1.498
294.60	1.667
294.96	1.586
295.32	1.666
295.68	1.837
296.04	1.840
296.40	1.934
296.76	2.070
297.12	2.202
297.49	2.304
297.85	2.502
298.21	2.768
298.57	2.852
298.93	3.136
299.29	3.297
299.65	3.346
300.01	3.634
300.37	3.603
300.73	3.559
301.09	3.439
301.45	3.360
301.81	3.497
302.17	3.347
302.53	3.467
302.89	3.731
303.25	3.748
303.61	3.979
303.97	4.101
304.33	4.256
304.69	4.367
305.05	4.664
305.41	4.807
305.77	4.763
306.13	4.740
306.49	4.714
306.85	4.265
307.21	4.377
307.57	4.161
307.93	4.088
308.29	4.136
308.65	4.164
309.01	4.055
309.37	4.027
309.73	3.979
310.09	4.033
310.45	3.891
310.81	3.937
311.17	3.864
311.53	3.861
311.89	3.680
312.25	3.519
312.61	3.483
312.96	3.437
313.32	3.227
313.68	3.137
314.04	3.058
314.40	3.094
314.76	3.211
315.12	3.032
315.48	2.923
315.84	2.823
316.20	2.796
316.56	2.652
316.92	2.469
317.27	2.505
317.63	2.464
317.99	2.319
318.35	2.174
318.71	2.028
319.07	1.938
319.43	1.922
319.79	1.970
320.15	1.967
320.50	1.910
320.86	1.782
321.22	1.629
321.58	1.490
321.94	1.519
322.30	1.544
322.66	1.300
323.01	1.186
323.37	0.984
323.73	0.849
324.09	0.675
324.45	0.490
324.81	0.424
325.17	0.356
325.52	0.277
325.88	0.130
326.24	-0.131
326.60	-0.118
326.96	-0.299
327.31	-0.362
327.67	-0.366
328.03	-0.499
328.39	-0.469
328.75	-0.553
329.11	-0.663
329.46	-0.642
329.82	-0.658
330.18	-0.518
330.54	-0.561
330.90	-0.458
331.25	-0.489
331.61	-0.483
331.97	-0.384
332.33	-0.444
332.68	-0.422
333.04	-0.269
333.40	-0.294
333.76	-0.215
334.11	-0.197
334.47	-0.217
334.83	-0.132
335.19	-0.062
335.54	-0.225
335.90	-0.340
336.26	-0.337
336.62	-0.333
336.97	-0.433
337.33	-0.363
337.69	-0.513
338.05	-0.587
338.40	-0.618
338.76	-0.749
339.12	-0.778
339.48	-0.748
339.83	-0.627
340.19	-0.650
340.55	-0.613
340.90	-0.605
341.26	-0.667
341.62	-0.646
341.97	-0.693
342.33	-0.679
342.69	-0.596
343.04	-0.631
343.40	-0.612
343.76	-0.614
344.12	-0.523
344.47	-0.473
344.83	-0.497
345.19	-0.469
345.54	-0.501
345.90	-0.513
346.26	-0.593
346.61	-0.663
346.97	-0.636
347.32	-0.655
347.68	-0.801
348.04	-0.917
348.39	-1.050
348.75	-1.145
349.11	-1.286
349.46	-1.289
349.82	-1.334
350.18	-1.315
350.53	-1.376
350.89	-1.538
351.24	-1.625
351.60	-1.543
351.96	-1.619
352.31	-1.594
352.67	-1.522
353.02	-1.518
353.38	-1.468
353.74	-1.455
354.09	-1.435
354.45	-1.248
354.80	-1.061
355.16	-1.002
355.52	-1.070
355.87	-0.909
356.23	-0.877
356.58	-0.743
356.94	-0.704
357.29	-0.668
357.65	-0.631
358.00	-0.569
358.36	-0.591
358.72	-0.634
359.07	-0.563
359.43	-0.533
359.78	-0.599
360.14	-0.626
360.49	-0.745
360.85	-0.848
361.20	-0.896
361.56	-0.964
361.91	-1.055
362.27	-1.218
362.62	-1.241
362.98	-1.362
363.33	-1.411
363.69	-1.575
364.04	-1.715
364.40	-1.799
364.75	-1.806
365.11	-1.942
365.46	-1.999
365.82	-2.048
366.17	-2.006
366.53	-2.087
366.88	-2.077
367.24	-2.065
367.59	-1.864
367.95	-1.799
368.30	-1.765
368.66	-1.688
369.01	-1.571
369.37	-1.444
369.72	-1.364
370.08	-1.340
370.43	-1.342
370.78	-1.297
371.14	-1.321
371.49	-1.331
371.85	-1.307
372.20	-1.278
372.56	-1.263
372.91	-1.338
373.26	-1.420
373.62	-1.508
373.97	-1.599
374.33	-1.606
374.68	-1.722
375.03	-1.712
375.39	-1.866
375.74	-1.865
376.10	-1.895
376.45	-1.987
376.80	-1.975
377.16	-1.909
377.51	-1.822
377.87	-1.714
378.22	-1.638
378.57	-1.481
378.93	-1.384
379.28	-1.211
379.63	-1.107
379.99	-0.960
380.34	-0.787
380.70	-0.625
381.05	-0.547
381.40	-0.528
381.76	-0.507
382.11	-0.472
382.46	-0.472
382.82	-0.467
383.17	-0.519
383.52	-0.518
383.88	-0.577
384.23	-0.609
384.58	-0.676
384.94	-0.736
385.29	-0.725
385.64	-0.729
385.99	-0.745
386.35	-0.745
386.70	-0.814
387.05	-0.899
387.41	-0.996
387.76	-1.054
388.11	-1.134
388.47	-1.141
388.82	-1.137
389.17	-1.119
389.52	-1.136
389.88	-1.111
390.23	-1.091
390.58	-1.011
390.93	-0.879
391.29	-0.775
391.64	-0.725
391.99	-0.626
392.34	-0.652
392.70	-0.665
393.05	-0.687
393.40	-0.690
393.75	-0.769
394.11	-0.868
394.46	-0.948
394.81	-1.076
395.16	-1.260
395.52	-1.396
395.87	-1.596
396.22	-1.793
396.57	-2.003
396.92	-2.237
397.28	-2.428
397.63	-2.605
397.98	-2.799
398.33	-3.000
398.68	-3.144
399.04	-3.227
399.39	-3.349
399.74	-3.385
400.09	-3.354
400.44	-3.366
400.80	-3.317
401.15	-3.281
401.50	-3.205
401.85	-3.144
402.20	-3.090
402.55	-3.044
402.90	-2.992
403.26	-2.914
403.61	-2.940
403.96	-2.954
404.31	-2.943
404.66	-2.968
405.01	-2.990
405.36	-3.051
405.72	-3.084
406.07	-3.129
406.42	-3.202
406.77	-3.289
407.12	-3.365
407.47	-3.349
407.82	-3.396
408.17	-3.386
408.53	-3.425
408.88	-3.517
409.23	-3.559
409.58	-3.606
409.93	-3.658
410.28	-3.673
410.63	-3.702
410.98	-3.770
411.33	-3.800
411.68	-3.744
412.03	-3.779
412.38	-3.697
412.73	-3.576
413.09	-3.406
413.44	-3.255
413.79	-3.059
414.14	-2.851
414.49	-2.601
414.84	-2.356
415.19	-2.137
415.54	-1.949
415.89	-1.679
416.24	-1.498
416.59	-1.299
416.94	-1.172
417.29	-1.031
417.64	-0.921
417.99	-0.809
418.34	-0.753
418.69	-0.662
419.04	-0.590
419.39	-0.525
419.74	-0.496
420.09	-0.464
420.44	-0.441
420.79	-0.434
421.14	-0.438
421.49	-0.428
421.84	-0.456
422.19	-0.465
422.54	-0.502
422.89	-0.557
423.24	-0.623
423.59	-0.705
423.94	-0.792
424.29	-0.923
424.64	-1.019
424.99	-1.118
425.34	-1.250
425.68	-1.352
426.03	-1.476
426.38	-1.570
426.73	-1.640
427.08	-1.705
427.43	-1.722
427.78	-1.713
428.13	-1.674
428.48	-1.638
428.83	-1.606
429.18	-1.523
429.53	-1.470
429.87	-1.402
430.22	-1.389
430.57	-1.401
430.92	-1.392
431.27	-1.400
431.62	-1.411
431.97	-1.436
432.32	-1.505
432.67	-1.549
433.01	-1.634
433.36	-1.716
433.71	-1.796
434.06	-1.854
434.41	-1.860
434.76	-1.882
435.11	-1.883
435.45	-1.867
435.80	-1.822
436.15	-1.701
436.50	-1.648
436.85	-1.554
437.20	-1.480
437.54	-1.413
437.89	-1.369
438.24	-1.339
438.59	-1.315
438.94	-1.340
439.29	-1.372
439.63	-1.423
439.98	-1.504
440.33	-1.524
440.68	-1.567
441.03	-1.562
441.37	-1.534
441.72	-1.480
442.07	-1.447
442.42	-1.385
442.76	-1.280
443.11	-1.161
443.46	-1.053
443.81	-0.967
444.16	-0.910
444.50	-0.871
444.85	-0.876
445.20	-0.885
445.55	-0.948
445.89	-1.008
446.24	-1.117
446.59	-1.239
446.94	-1.397
447.28	-1.550
447.63	-1.719
447.98	-1.871
448.32	-2.024
448.67	-2.155
449.02	-2.296
449.37	-2.410
449.71	-2.437
450.06	-2.443
450.41	-2.427
450.75	-2.420
451.10	-2.418
451.45	-2.406
451.79	-2.407
452.14	-2.403
452.49	-2.400
452.84	-2.408
453.18	-2.387
453.53	-2.407
453.88	-2.402
454.22	-2.382
454.57	-2.315
454.92	-2.218
455.26	-2.084
455.61	-1.936
455.95	-1.800
456.30	-1.680
456.65	-1.546
456.99	-1.427
457.34	-1.315
457.69	-1.221
458.03	-1.194
458.38	-1.166
458.73	-1.188
459.07	-1.256
459.42	-1.365
459.76	-1.486
460.11	-1.627
460.46	-1.781
460.80	-1.946
461.15	-2.121
461.49	-2.296
461.84	-2.420
462.19	-2.555
462.53	-2.641
462.88	-2.688
463.22	-2.684
463.57	-2.678
463.91	-2.639
464.26	-2.612
464.61	-2.564
464.95	-2.533
465.30	-2.513
465.64	-2.503
465.99	-2.514
466.33	-2.538
466.68	-2.568
467.02	-2.624
467.37	-2.659
467.71	-2.718
468.06	-2.743
468.41	-2.797
468.75	-2.869
469.10	-2.949
469.44	-3.036
469.79	-3.107
470.13	-3.173
470.48	-3.240
470.82	-3.300
471.17	-3.382
471.51	-3.424
471.86	-3.482
472.20	-3.550
472.55	-3.609
472.89	-3.632
473.23	-3.667
473.58	-3.701
473.92	-3.728
474.27	-3.743
474.61	-3.730
474.96	-3.701
475.30	-3.691
475.65	-3.704
475.99	-3.688
476.34	-3.640
476.68	-3.612
477.02	-3.564
477.37	-3.504
477.71	-3.399
478.06	-3.247
478.40	-3.005
478.75	-2.630
479.09	-2.228
479.43	-1.810
479.78	-1.431
480.12	-1.100
480.47	-0.785
480.81	-0.507
481.15	-0.249
481.50	-0.031
481.84	0.163
482.19	0.324
482.53	0.439
482.87	0.518
483.22	0.545
483.56	0.537
483.90	0.502
484.25	0.435
484.59	0.358
484.94	0.269
485.28	0.172
485.62	0.062
485.97	-0.064
486.31	-0.200
486.65	-0.325
487.00	-0.435
487.34	-0.539
487.68	-0.638
488.03	-0.730
488.37	-0.817
488.71	-0.910
489.06	-0.993
489.40	-1.073
489.74	-1.147
490.09	-1.240
490.43	-1.361
490.77	-1.499
491.11	-1.658
491.46	-1.824
491.80	-2.022
492.14	-2.218
492.49	-2.428
492.83	-2.645
493.17	-2.858
493.51	-3.084
493.86	-3.287
494.20	-3.448
494.54	-3.567
494.88	-3.601
495.23	-3.635
495.57	-3.627
495.91	-3.628
496.25	-3.621
496.60	-3.630
496.94	-3.666
497.28	-3.716
497.62	-3.787
497.97	-3.855
498.31	-3.936
498.65	-4.020
498.99	-4.088
499.33	-4.169
499.68	-4.250
500.02	-4.333
500.36	-4.391
500.70	-4.458
501.04	-4.487
501.39	-4.503
501.73	-4.510
502.07	-4.504
502.41	-4.502
502.75	-4.499
503.09	-4.477
503.44	-4.459
503.78	-4.449
504.12	-4.409
504.46	-4.365
504.80	-4.339
505.14	-4.286
505.49	-4.237
505.83	-4.191
506.17	-4.161
506.51	-4.130
506.85	-4.098
507.19	-4.074
507.53	-4.028
507.87	-4.025
508.22	-4.017
508.56	-4.022
508.90	-4.062
509.24	-4.112
509.58	-4.159
509.92	-4.207
510.26	-4.256
510.60	-4.319
510.94	-4.373
511.28	-4.436
511.63	-4.501
511.97	-4.541
512.31	-4.577
512.65	-4.576
512.99	-4.561
513.33	-4.510
513.67	-4.419
514.01	-4.324
514.35	-4.190
514.69	-4.050
515.03	-3.914
515.37	-3.779
515.71	-3.654
516.05	-3.543
516.39	-3.460
516.73	-3.405
517.07	-3.391
517.41	-3.417
517.75	-3.479
518.09	-3.591
518.43	-3.727
518.77	-3.903
519.11	-4.083
519.45	-4.285
519.79	-4.469
520.13	-4.647
520.47	-4.786
520.81	-4.869
521.15	-4.930
521.49	-4.933
521.83	-4.873
522.17	-4.778
522.51	-4.601
522.85	-4.378
523.19	-4.069
523.53	-3.688
523.87	-3.285
524.21	-2.907
524.55	-2.580
524.89	-2.281
525.23	-2.015
525.57	-1.782
525.91	-1.577
526.25	-1.422
526.58	-1.284
526.92	-1.196
527.26	-1.153
527.60	-1.164
527.94	-1.206
528.28	-1.271
528.62	-1.362
528.96	-1.455
529.30	-1.570
529.64	-1.706
529.97	-1.840
530.31	-1.998
530.65	-2.147
530.99	-2.298
531.33	-2.417
531.67	-2.502
532.01	-2.573
532.35	-2.649
532.68	-2.747
533.02	-2.861
533.36	-2.978
533.70	-3.096
534.04	-3.212
534.38	-3.359
534.71	-3.523
535.05	-3.687
535.39	-3.860
535.73	-4.000
536.07	-4.079
536.41	-4.082
536.74	-4.005
537.08	-3.883
537.42	-3.743
537.76	-3.565
538.10	-3.370
538.43	-3.163
538.77	-2.956
539.11	-2.769
539.45	-2.623
539.79	-2.495
540.12	-2.415
540.46	-2.395
540.80	-2.413
541.14	-2.456
541.47	-2.559
541.81	-2.669
542.15	-2.797
542.49	-2.970
542.82	-3.179
543.16	-3.395
543.50	-3.641
543.84	-3.882
544.17	-4.088
544.51	-4.260
544.85	-4.423
545.18	-4.574
545.52	-4.767
545.86	-4.956
546.20	-5.161
546.53	-5.351
546.87	-5.563
547.21	-5.787
547.54	-6.006
547.88	-6.226
548.22	-6.435
548.55	-6.604
548.89	-6.731
549.23	-6.800
549.56	-6.885
549.90	-6.891
550.24	-6.881
550.57	-6.869
550.91	-6.825
551.25	-6.797
551.58	-6.768
551.92	-6.757
552.26	-6.790
552.59	-6.833
552.93	-6.918
553.27	-6.979
553.60	-7.071
553.94	-7.175
554.27	-7.213
554.61	-7.263
554.95	-7.316
555.28	-7.374
555.62	-7.422
555.95	-7.404
556.29	-7.409
556.63	-7.368
556.96	-7.325
557.30	-7.266
557.63	-7.205
557.97	-7.191
558.31	-7.178
558.64	-7.164
558.98	-7.122
559.31	-7.085
559.65	-7.079
559.98	-7.047
560.32	-7.006
560.65	-6.961
560.99	-6.890
561.33	-6.801
561.66	-6.702
562.00	-6.586
562.33	-6.418
562.67	-6.290
563.00	-6.140
563.34	-5.988
563.67	-5.844
564.01	-5.726
564.34	-5.604
564.68	-5.517
565.01	-5.445
565.35	-5.412
565.68	-5.374
566.02	-5.382
566.35	-5.367
566.69	-5.361
567.02	-5.354
567.36	-5.312
567.69	-5.287
568.03	-5.266
568.36	-5.224
568.69	-5.186
569.03	-5.093
569.36	-5.017
569.70	-4.934
570.03	-4.838
570.37	-4.765
570.70	-4.708
571.04	-4.686
571.37	-4.643
571.70	-4.623
572.04	-4.622
572.37	-4.629
572.71	-4.651
573.04	-4.673
573.37	-4.691
573.71	-4.756
574.04	-4.833
574.38	-4.906
574.71	-4.987
575.04	-5.104
575.38	-5.190
575.71	-5.301
576.05	-5.389
576.38	-5.492
576.71	-5.587
577.05	-5.737
577.38	-5.834
577.71	-5.936
578.05	-6.034
578.38	-6.118
578.71	-6.170
579.05	-6.225
579.38	-6.244
579.71	-6.288
580.05	-6.317
580.38	-6.343
580.71	-6.330
581.05	-6.353
581.38	-6.308
581.71	-6.291
582.05	-6.266
582.38	-6.235
582.71	-6.218
583.04	-6.201
583.38	-6.171
583.71	-6.111
584.04	-6.047
584.38	-5.954
584.71	-5.819
585.04	-5.752
585.37	-5.635
585.71	-5.502
586.04	-5.359
586.37	-5.218
586.70	-5.083
587.04	-4.949
587.37	-4.858
587.70	-4.770
588.03	-4.696
588.37	-4.669
588.70	-4.620
589.03	-4.601
589.36	-4.627
589.69	-4.649
590.03	-4.662
590.36	-4.658
590.69	-4.670
591.02	-4.662
591.35	-4.629
591.69	-4.597
592.02	-4.533
592.35	-4.458
592.68	-4.349
593.01	-4.189
593.35	-4.056
593.68	-3.925
594.01	-3.843
594.34	-3.756
594.67	-3.680
595.00	-3.633
595.34	-3.586
595.67	-3.556
596.00	-3.572
596.33	-3.647
596.66	-3.733
596.99	-3.841
597.32	-3.952
597.65	-4.054
597.99	-4.114
598.32	-4.172
598.65	-4.240
598.98	-4.305
599.31	-4.302
599.64	-4.242
599.97	-4.099
600.30	-3.968
600.63	-3.799
600.96	-3.663
601.30	-3.512
601.63	-3.386
601.96	-3.276
602.29	-3.178
602.62	-3.066
602.95	-3.027
603.28	-2.989
603.61	-3.008
603.94	-3.026
604.27	-3.078
604.60	-3.105
604.93	-3.157
605.26	-3.185
605.59	-3.226
605.92	-3.272
606.25	-3.314
606.58	-3.298
606.91	-3.298
607.24	-3.275
607.57	-3.250
607.90	-3.224
608.23	-3.230
608.56	-3.215
608.89	-3.259
609.22	-3.315
609.55	-3.372
609.88	-3.439
610.21	-3.577
610.54	-3.681
610.87	-3.816
611.20	-3.940
611.53	-4.065
611.86	-4.167
612.19	-4.298
612.52	-4.404
612.85	-4.443
613.18	-4.419
613.51	-4.451
613.84	-4.452
614.17	-4.466
614.49	-4.420
614.82	-4.440
615.15	-4.430
615.48	-4.425
615.81	-4.397
616.14	-4.377
616.47	-4.349
616.80	-4.400
617.13	-4.430
617.46	-4.433
617.78	-4.423
618.11	-4.465
618.44	-4.460
618.77	-4.483
619.10	-4.464
619.43	-4.470
619.76	-4.449
620.09	-4.448
620.41	-4.398
620.74	-4.329
621.07	-4.325
621.40	-4.288
621.73	-4.206
622.06	-4.150
622.38	-4.042
622.71	-4.011
623.04	-3.918
623.37	-3.830
623.70	-3.715
624.02	-3.636
624.35	-3.539
624.68	-3.416
625.01	-3.356
625.34	-3.306
625.66	-3.268
625.99	-3.250
626.32	-3.208
626.65	-3.224
626.98	-3.234
627.30	-3.304
627.63	-3.376
627.96	-3.492
628.29	-3.551
628.61	-3.628
628.94	-3.690
629.27	-3.717
629.60	-3.770
629.92	-3.832
630.25	-3.831
630.58	-3.861
630.91	-3.850
631.23	-3.835
631.56	-3.789
631.89	-3.809
632.21	-3.756
632.54	-3.825
632.87	-3.835
633.19	-3.862
633.52	-3.857
633.85	-3.912
634.18	-3.955
634.50	-4.000
634.83	-4.038
635.16	-4.111
635.48	-4.147
635.81	-4.225
636.14	-4.218
636.46	-4.292
636.79	-4.302
