OOIBase32 Version 2.0.0.6 Data File
++++++++++++++++++++++++++++++++++++
Date: 01-22-2012, 22:07:28
User: Valued Ocean Optics Customer
Spectrometer Serial Number: USB2E2917
Spectrometer Channel: Master
Integration Time (msec): 4
Spectra Averaged: 10
Boxcar Smoothing: 5
Correct for Electrical Dark: Enabled
Time Normalized: Disabled
Dual-beam Reference: Disabled
Reference Channel: Master
Temperature: Not acquired
Spectrometer Type: S2000
ADC Type: USB2000
Number of Pixels in File: 2048
Graph Title: 
>>>>>Begin Spectral Data<<<<<
180.30	0.000
180.67	0.000
181.03	2.862
181.40	200.437
181.77	301.371
182.14	55.580
182.51	113.548
182.88	145.875
183.25	12.333
183.62	31.882
183.99	100.939
184.36	-204.188
184.73	263.572
185.10	-982.503
185.46	-324.743
185.83	1230.906
186.20	116.399
186.57	-2478.658
186.94	98.850
187.31	-57.154
187.68	-308.232
188.05	-480.271
188.42	-500.500
188.78	1493.307
189.15	372.332
189.52	220.410
189.89	142.618
190.26	91.148
190.63	44.628
191.00	36.335
191.37	11.525
191.73	-21.592
192.10	-18.897
192.47	-11.794
192.84	-21.606
193.21	-10.357
193.58	4.996
193.94	20.793
194.31	35.351
194.68	38.288
195.05	40.348
195.42	51.250
195.79	55.017
196.15	53.575
196.52	35.578
196.89	52.775
197.26	52.439
197.63	56.177
198.00	10.744
198.36	-23.481
198.73	-46.650
199.10	-79.448
199.47	-16.773
199.84	-3.972
200.20	20.432
200.57	12.229
200.94	18.228
201.31	32.244
201.68	23.840
202.04	56.821
202.41	66.653
202.78	53.939
203.15	39.676
203.51	44.284
203.88	44.236
204.25	61.765
204.62	57.274
204.98	60.645
205.35	61.551
205.72	65.743
206.09	45.012
206.46	46.573
206.82	39.275
207.19	37.381
207.56	33.676
207.92	30.946
208.29	26.134
208.66	51.006
209.03	38.072
209.39	30.773
209.76	25.872
210.13	20.393
210.50	18.685
210.86	30.415
211.23	55.851
211.60	68.727
211.96	83.331
212.33	90.873
212.70	127.450
213.07	133.144
213.43	112.461
213.80	102.919
214.17	117.641
214.53	102.379
214.90	102.517
215.27	81.487
215.63	81.785
216.00	60.626
216.37	33.917
216.74	4.331
217.10	-21.085
217.47	-8.675
217.84	2.184
218.20	0.617
218.57	-6.489
218.94	-18.207
219.30	-23.027
219.67	-16.358
220.04	0.886
220.40	15.222
220.77	15.929
221.13	17.607
221.50	3.170
221.87	4.333
222.23	5.784
222.60	8.627
222.97	6.680
223.33	3.853
223.70	7.660
224.07	13.670
224.43	8.017
224.80	5.234
225.16	3.985
225.53	6.765
225.90	4.772
226.26	5.637
226.63	4.650
226.99	5.164
227.36	7.681
227.73	8.449
228.09	6.021
228.46	7.332
228.82	8.164
229.19	7.452
229.56	6.891
229.92	7.584
230.29	5.084
230.65	8.918
231.02	12.305
231.38	10.503
231.75	10.000
232.12	10.147
232.48	9.670
232.85	12.531
233.21	14.249
233.58	15.609
233.94	14.848
234.31	15.784
234.68	13.748
235.04	12.512
235.41	12.258
235.77	12.237
236.14	8.982
236.50	6.547
236.87	2.805
237.23	2.510
237.60	2.078
237.96	2.823
238.33	2.191
238.69	1.551
239.06	1.966
239.42	2.232
239.79	1.887
240.15	3.818
240.52	5.011
240.88	5.827
241.25	5.659
241.61	5.025
241.98	4.217
242.34	4.173
242.71	3.795
243.07	3.853
243.44	3.871
243.80	3.453
244.17	3.647
244.53	3.675
244.90	4.361
245.26	4.578
245.63	5.189
245.99	5.620
246.36	5.846
246.72	6.039
247.09	6.058
247.45	6.424
247.81	6.534
248.18	6.429
248.54	6.654
248.91	6.838
249.27	6.557
249.64	6.091
250.00	6.026
250.36	5.970
250.73	6.198
251.09	5.676
251.46	5.629
251.82	6.398
252.19	6.037
252.55	6.169
252.91	4.966
253.28	5.059
253.64	5.156
254.01	5.452
254.37	5.507
254.73	5.177
255.10	5.017
255.46	4.495
255.83	3.960
256.19	3.928
256.55	3.718
256.92	3.614
257.28	3.733
257.65	3.701
258.01	3.507
258.37	3.533
258.74	3.457
259.10	3.633
259.46	3.872
259.83	3.825
260.19	3.689
260.55	3.662
260.92	3.715
261.28	3.478
261.64	3.553
262.01	3.547
262.37	3.498
262.73	3.598
263.10	3.593
263.46	3.342
263.82	3.857
264.19	4.249
264.55	4.235
264.91	4.386
265.28	4.825
265.64	4.975
266.00	5.118
266.37	4.968
266.73	5.184
267.09	4.811
267.46	4.477
267.82	4.029
268.18	4.057
268.54	4.285
268.91	4.417
269.27	4.314
269.63	4.070
270.00	4.069
270.36	4.159
270.72	4.037
271.08	4.372
271.45	4.715
271.81	5.066
272.17	5.121
272.53	5.031
272.90	4.809
273.26	4.970
273.62	5.197
273.98	5.343
274.35	5.182
274.71	5.263
275.07	5.358
275.43	5.375
275.80	5.402
276.16	5.218
276.52	4.872
276.88	4.909
277.25	4.814
277.61	4.569
277.97	4.362
278.33	4.544
278.69	4.775
279.06	4.505
279.42	4.308
279.78	4.138
280.14	4.212
280.50	4.298
280.87	4.214
281.23	3.969
281.59	3.951
281.95	4.011
282.31	4.150
282.68	3.816
283.04	3.935
283.40	3.840
283.76	3.829
284.12	3.823
284.48	3.867
284.85	4.191
285.21	4.290
285.57	4.194
285.93	4.301
286.29	4.063
286.65	4.322
287.02	4.177
287.38	4.214
287.74	4.050
288.10	3.818
288.46	3.648
288.82	3.339
289.18	3.361
289.54	3.560
289.91	3.246
290.27	3.230
290.63	3.005
290.99	3.132
291.35	3.262
291.71	3.402
292.07	3.655
292.43	3.709
292.79	3.561
293.16	3.496
293.52	3.578
293.88	3.585
294.24	3.732
294.60	3.778
294.96	3.600
295.32	3.546
295.68	3.616
296.04	3.505
296.40	3.596
296.76	3.846
297.12	3.897
297.49	3.835
297.85	3.933
298.21	3.904
298.57	3.878
298.93	4.094
299.29	4.048
299.65	3.979
300.01	4.071
300.37	3.932
300.73	3.746
301.09	3.950
301.45	3.937
301.81	3.989
302.17	4.121
302.53	4.227
302.89	3.984
303.25	4.074
303.61	4.295
303.97	4.375
304.33	4.532
304.69	4.575
305.05	4.370
305.41	4.357
305.77	4.327
306.13	4.074
306.49	3.796
306.85	3.882
307.21	4.003
307.57	3.806
307.93	3.725
308.29	3.777
308.65	3.628
309.01	3.525
309.37	3.558
309.73	3.588
310.09	3.757
310.45	3.796
310.81	3.751
311.17	3.528
311.53	3.467
311.89	3.437
312.25	3.316
312.61	3.424
312.96	3.585
313.32	3.461
313.68	3.193
314.04	3.083
314.40	3.169
314.76	3.170
315.12	3.293
315.48	3.315
315.84	3.353
316.20	3.607
316.56	3.588
316.92	3.672
317.27	3.917
317.63	4.064
317.99	4.089
318.35	4.197
318.71	4.139
319.07	4.139
319.43	4.144
319.79	3.986
320.15	3.727
320.50	3.737
320.86	3.567
321.22	3.479
321.58	3.562
321.94	3.500
322.30	3.447
322.66	3.669
323.01	3.593
323.37	3.846
323.73	4.096
324.09	4.200
324.45	4.184
324.81	4.226
325.17	4.086
325.52	4.091
325.88	4.197
326.24	4.141
326.60	4.021
326.96	4.026
327.31	3.942
327.67	3.900
328.03	3.759
328.39	3.886
328.75	3.918
329.11	4.170
329.46	4.172
329.82	4.400
330.18	4.411
330.54	4.554
330.90	4.694
331.25	4.619
331.61	4.589
331.97	4.810
332.33	4.887
332.68	5.009
333.04	5.143
333.40	5.310
333.76	5.176
334.11	5.298
334.47	5.301
334.83	5.236
335.19	5.253
335.54	5.372
335.90	5.443
336.26	5.575
336.62	5.550
336.97	5.233
337.33	5.100
337.69	4.996
338.05	5.087
338.40	5.012
338.76	5.084
339.12	5.089
339.48	5.089
339.83	4.909
340.19	4.689
340.55	4.660
340.90	4.849
341.26	5.018
341.62	5.148
341.97	4.985
342.33	5.081
342.69	5.099
343.04	5.199
343.40	5.164
343.76	5.274
344.12	5.322
344.47	5.285
344.83	5.203
345.19	5.104
345.54	4.962
345.90	4.952
346.26	4.921
346.61	4.981
346.97	4.881
347.32	4.806
347.68	4.783
348.04	4.795
348.39	4.830
348.75	4.775
349.11	4.682
349.46	4.737
349.82	4.797
350.18	4.908
350.53	4.810
350.89	4.835
351.24	4.905
351.60	4.893
351.96	4.840
352.31	4.874
352.67	4.990
353.02	5.094
353.38	5.148
353.74	5.199
354.09	5.117
354.45	5.101
354.80	5.182
355.16	5.201
355.52	5.228
355.87	5.266
356.23	5.348
356.58	5.447
356.94	5.476
357.29	5.579
357.65	5.601
358.00	5.600
358.36	5.680
358.72	5.641
359.07	5.720
359.43	5.714
359.78	5.767
360.14	5.755
360.49	5.660
360.85	5.694
361.20	5.646
361.56	5.544
361.91	5.601
362.27	5.648
362.62	5.668
362.98	5.649
363.33	5.681
363.69	5.655
364.04	5.639
364.40	5.677
364.75	5.556
365.11	5.520
365.46	5.593
365.82	5.563
366.17	5.546
366.53	5.565
366.88	5.632
367.24	5.697
367.59	5.751
367.95	5.829
368.30	5.863
368.66	6.001
369.01	6.100
369.37	6.173
369.72	6.261
370.08	6.282
370.43	6.358
370.78	6.316
371.14	6.344
371.49	6.386
371.85	6.408
372.20	6.497
372.56	6.566
372.91	6.544
373.26	6.628
373.62	6.682
373.97	6.751
374.33	6.749
374.68	6.817
375.03	6.885
375.39	6.912
375.74	6.945
376.10	6.997
376.45	7.005
376.80	7.129
377.16	7.207
377.51	7.251
377.87	7.335
378.22	7.538
378.57	7.707
378.93	7.811
379.28	7.997
379.63	8.169
379.99	8.343
380.34	8.528
380.70	8.647
381.05	8.761
381.40	8.888
381.76	8.991
382.11	9.071
382.46	9.117
382.82	9.212
383.17	9.295
383.52	9.341
383.88	9.326
384.23	9.389
384.58	9.512
384.94	9.542
385.29	9.648
385.64	9.756
385.99	9.825
386.35	9.972
386.70	10.053
387.05	10.167
387.41	10.254
387.76	10.403
388.11	10.546
388.47	10.622
388.82	10.795
389.17	10.909
389.52	11.039
389.88	11.153
390.23	11.235
390.58	11.354
390.93	11.478
391.29	11.610
391.64	11.764
391.99	11.841
392.34	11.968
392.70	11.998
393.05	12.076
393.40	12.162
393.75	12.254
394.11	12.338
394.46	12.412
394.81	12.476
395.16	12.525
395.52	12.470
395.87	12.478
396.22	12.451
396.57	12.460
396.92	12.477
397.28	12.432
397.63	12.436
397.98	12.418
398.33	12.439
398.68	12.432
399.04	12.475
399.39	12.561
399.74	12.627
400.09	12.675
400.44	12.764
400.80	12.830
401.15	12.926
401.50	13.003
401.85	13.059
402.20	13.125
402.55	13.198
402.90	13.301
403.26	13.356
403.61	13.430
403.96	13.506
404.31	13.614
404.66	13.643
405.01	13.689
405.36	13.753
405.72	13.827
406.07	13.874
406.42	13.897
406.77	13.891
407.12	13.934
407.47	13.965
407.82	14.003
408.17	14.033
408.53	14.134
408.88	14.212
409.23	14.207
409.58	14.224
409.93	14.261
410.28	14.304
410.63	14.353
410.98	14.404
411.33	14.493
411.68	14.515
412.03	14.551
412.38	14.590
412.73	14.660
413.09	14.724
413.44	14.829
413.79	14.936
414.14	15.060
414.49	15.115
414.84	15.139
415.19	15.175
415.54	15.257
415.89	15.301
416.24	15.364
416.59	15.410
416.94	15.484
417.29	15.487
417.64	15.501
417.99	15.503
418.34	15.551
418.69	15.608
419.04	15.618
419.39	15.663
419.74	15.705
420.09	15.700
420.44	15.727
420.79	15.726
421.14	15.775
421.49	15.814
421.84	15.836
422.19	15.860
422.54	15.901
422.89	15.943
423.24	15.947
423.59	15.955
423.94	15.995
424.29	16.012
424.64	16.041
424.99	16.062
425.34	16.100
425.68	16.162
426.03	16.184
426.38	16.200
426.73	16.239
427.08	16.291
427.43	16.366
427.78	16.409
428.13	16.443
428.48	16.480
428.83	16.496
429.18	16.487
429.53	16.483
429.87	16.525
430.22	16.516
430.57	16.545
430.92	16.582
431.27	16.560
431.62	16.576
431.97	16.578
432.32	16.605
432.67	16.599
433.01	16.642
433.36	16.686
433.71	16.685
434.06	16.741
434.41	16.740
434.76	16.745
435.11	16.770
435.45	16.775
435.80	16.811
436.15	16.807
436.50	16.851
436.85	16.840
437.20	16.867
437.54	16.867
437.89	16.866
438.24	16.915
438.59	16.935
438.94	16.928
439.29	16.954
439.63	16.962
439.98	16.990
440.33	16.997
440.68	17.025
441.03	16.993
441.37	17.037
441.72	17.054
442.07	17.041
442.42	17.070
442.76	17.149
443.11	17.151
443.46	17.168
443.81	17.177
444.16	17.198
444.50	17.208
444.85	17.225
445.20	17.228
445.55	17.259
445.89	17.286
446.24	17.270
446.59	17.218
446.94	17.245
447.28	17.240
447.63	17.279
447.98	17.296
448.32	17.318
448.67	17.362
449.02	17.373
449.37	17.379
449.71	17.374
450.06	17.404
450.41	17.458
450.75	17.438
451.10	17.452
451.45	17.399
451.79	17.408
452.14	17.369
452.49	17.376
452.84	17.382
453.18	17.388
453.53	17.413
453.88	17.437
454.22	17.484
454.57	17.563
454.92	17.603
455.26	17.647
455.61	17.706
455.95	17.756
456.30	17.805
456.65	17.836
456.99	17.880
457.34	17.926
457.69	17.959
458.03	17.965
458.38	17.980
458.73	18.002
459.07	18.057
459.42	18.046
459.76	18.084
460.11	18.076
460.46	18.099
460.80	18.102
461.15	18.084
461.49	18.110
461.84	18.134
462.19	18.143
462.53	18.180
462.88	18.221
463.22	18.285
463.57	18.352
463.91	18.419
464.26	18.481
464.61	18.533
464.95	18.605
465.30	18.652
465.64	18.672
465.99	18.743
466.33	18.788
466.68	18.824
467.02	18.854
467.37	18.881
467.71	18.897
468.06	18.938
468.41	18.955
468.75	18.978
469.10	18.986
469.44	19.027
469.79	19.015
470.13	19.035
470.48	19.044
470.82	19.056
471.17	19.051
471.51	19.063
471.86	19.054
472.20	19.081
472.55	19.092
472.89	19.127
473.23	19.150
473.58	19.153
473.92	19.172
474.27	19.190
474.61	19.220
474.96	19.231
475.30	19.229
475.65	19.264
475.99	19.287
476.34	19.295
476.68	19.278
477.02	19.309
477.37	19.366
477.71	19.394
478.06	19.463
478.40	19.616
478.75	19.832
479.09	20.066
479.43	20.321
479.78	20.527
480.12	20.727
480.47	20.895
480.81	21.061
481.15	21.206
481.50	21.362
481.84	21.529
482.19	21.665
482.53	21.738
482.87	21.734
483.22	21.707
483.56	21.695
483.90	21.674
484.25	21.660
484.59	21.591
484.94	21.522
485.28	21.416
485.62	21.275
485.97	21.133
486.31	21.049
486.65	21.046
487.00	21.028
487.34	21.005
487.68	20.980
488.03	20.962
488.37	20.977
488.71	20.990
489.06	21.030
489.40	21.037
489.74	21.062
490.09	21.072
490.43	21.057
490.77	21.028
491.11	21.022
491.46	21.016
491.80	20.993
492.14	20.976
492.49	20.955
492.83	20.915
493.17	20.901
493.51	20.888
493.86	20.844
494.20	20.882
494.54	20.920
494.88	20.933
495.23	20.970
495.57	21.019
495.91	21.057
496.25	21.090
496.60	21.156
496.94	21.238
497.28	21.277
497.62	21.349
497.97	21.367
498.31	21.438
498.65	21.542
498.99	21.630
499.33	21.723
499.68	21.813
500.02	21.909
500.36	21.965
500.70	22.045
501.04	22.089
501.39	22.164
501.73	22.250
502.07	22.320
502.41	22.357
502.75	22.382
503.09	22.435
503.44	22.486
503.78	22.527
504.12	22.590
504.46	22.643
504.80	22.727
505.14	22.800
505.49	22.874
505.83	22.939
506.17	23.037
506.51	23.117
506.85	23.183
507.19	23.244
507.53	23.318
507.87	23.391
508.22	23.444
508.56	23.486
508.90	23.525
509.24	23.547
509.58	23.573
509.92	23.605
510.26	23.664
510.60	23.698
510.94	23.765
511.28	23.808
511.63	23.859
511.97	23.904
512.31	23.979
512.65	24.079
512.99	24.198
513.33	24.305
513.67	24.376
514.01	24.471
514.35	24.585
514.69	24.691
515.03	24.805
515.37	24.909
515.71	24.995
516.05	25.035
516.39	25.076
516.73	25.082
517.07	25.145
517.41	25.160
517.75	25.161
518.09	25.143
518.43	25.136
518.77	25.115
519.11	25.093
519.45	25.097
519.79	25.114
520.13	25.136
520.47	25.176
520.81	25.185
521.15	25.256
521.49	25.314
521.83	25.392
522.17	25.455
522.51	25.573
522.85	25.703
523.19	25.907
523.53	26.158
523.87	26.433
524.21	26.721
524.55	26.956
524.89	27.192
525.23	27.383
525.57	27.562
525.91	27.728
526.25	27.872
526.58	27.986
526.92	28.055
527.26	28.080
527.60	28.033
527.94	27.983
528.28	27.911
528.62	27.843
528.96	27.779
529.30	27.715
529.64	27.634
529.97	27.526
530.31	27.444
530.65	27.374
530.99	27.340
531.33	27.360
531.67	27.364
532.01	27.389
532.35	27.375
532.68	27.351
533.02	27.331
533.36	27.310
533.70	27.317
534.04	27.278
534.38	27.245
534.71	27.212
535.05	27.185
535.39	27.150
535.73	27.167
536.07	27.219
536.41	27.336
536.74	27.473
537.08	27.610
537.42	27.775
537.76	27.934
538.10	28.070
538.43	28.203
538.77	28.335
539.11	28.454
539.45	28.547
539.79	28.634
540.12	28.686
540.46	28.651
540.80	28.624
541.14	28.545
541.47	28.524
541.81	28.491
542.15	28.460
542.49	28.402
542.82	28.342
543.16	28.275
543.50	28.178
543.84	28.110
544.17	28.099
544.51	28.104
544.85	28.133
545.18	28.114
545.52	28.095
545.86	28.047
546.20	28.036
546.53	28.013
546.87	28.028
547.21	28.019
547.54	27.996
547.88	28.044
548.22	28.064
548.55	28.064
548.89	28.089
549.23	28.149
549.56	28.247
549.90	28.273
550.24	28.354
550.57	28.376
550.91	28.424
551.25	28.479
551.58	28.508
551.92	28.539
552.26	28.601
552.59	28.668
552.93	28.717
553.27	28.701
553.60	28.743
553.94	28.759
554.27	28.788
554.61	28.900
554.95	28.994
555.28	29.054
555.62	29.142
555.95	29.239
556.29	29.297
556.63	29.385
556.96	29.471
557.30	29.560
557.63	29.658
557.97	29.777
558.31	29.829
558.64	29.878
558.98	29.945
559.31	30.027
559.65	30.084
559.98	30.123
560.32	30.153
560.65	30.279
560.99	30.359
561.33	30.500
561.66	30.609
562.00	30.713
562.33	30.795
562.67	30.869
563.00	30.932
563.34	30.976
563.67	31.099
564.01	31.210
564.34	31.275
564.68	31.329
565.01	31.351
565.35	31.372
565.68	31.403
566.02	31.485
566.35	31.611
566.69	31.691
567.02	31.803
567.36	31.858
567.69	31.912
568.03	31.952
568.36	32.033
568.69	32.106
569.03	32.173
569.36	32.229
569.70	32.274
570.03	32.323
570.37	32.382
570.70	32.424
571.04	32.482
571.37	32.573
571.70	32.643
572.04	32.697
572.37	32.760
572.71	32.831
573.04	32.982
573.37	33.062
573.71	33.140
574.04	33.218
574.38	33.317
574.71	33.414
575.04	33.443
575.38	33.522
575.71	33.585
576.05	33.618
576.38	33.692
576.71	33.672
577.05	33.742
577.38	33.792
577.71	33.856
578.05	33.926
578.38	33.957
578.71	34.044
579.05	34.112
579.38	34.199
579.71	34.289
580.05	34.348
580.38	34.437
580.71	34.502
581.05	34.560
581.38	34.611
581.71	34.629
582.05	34.681
582.38	34.766
582.71	34.811
583.04	34.869
583.38	34.963
583.71	35.012
584.04	35.084
584.38	35.150
584.71	35.233
585.04	35.373
585.37	35.537
585.71	35.696
586.04	35.781
586.37	35.870
586.70	35.995
587.04	36.096
587.37	36.205
587.70	36.292
588.03	36.363
588.37	36.481
588.70	36.522
589.03	36.525
589.36	36.548
589.69	36.568
590.03	36.657
590.36	36.686
590.69	36.733
591.02	36.786
591.35	36.861
591.69	36.902
592.02	36.904
592.35	36.952
592.68	37.004
593.01	37.036
593.35	37.081
593.68	37.078
594.01	37.075
594.34	37.094
594.67	37.100
595.00	37.099
595.34	37.159
595.67	37.189
596.00	37.200
596.33	37.245
596.66	37.268
596.99	37.309
597.32	37.332
597.65	37.422
597.99	37.417
598.32	37.464
598.65	37.483
598.98	37.541
599.31	37.597
599.64	37.641
599.97	37.626
600.30	37.684
600.63	37.740
600.96	37.786
601.30	37.774
601.63	37.778
601.96	37.798
602.29	37.845
602.62	37.820
602.95	37.793
603.28	37.825
603.61	37.875
603.94	37.829
604.27	37.797
604.60	37.858
604.93	37.950
605.26	38.042
605.59	38.077
605.92	38.111
606.25	38.160
606.58	38.225
606.91	38.262
607.24	38.310
607.57	38.423
607.90	38.516
608.23	38.560
608.56	38.548
608.89	38.592
609.22	38.656
609.55	38.675
609.88	38.718
610.21	38.760
610.54	38.794
610.87	38.849
611.20	38.880
611.53	38.857
611.86	38.903
612.19	38.963
612.52	38.996
612.85	38.997
613.18	38.998
613.51	39.064
613.84	39.139
614.17	39.173
614.49	39.175
614.82	39.214
615.15	39.274
615.48	39.248
615.81	39.248
616.14	39.278
616.47	39.355
616.80	39.423
617.13	39.432
617.46	39.429
617.78	39.435
618.11	39.450
618.44	39.484
618.77	39.467
619.10	39.510
619.43	39.565
619.76	39.592
620.09	39.587
620.41	39.626
620.74	39.642
621.07	39.617
621.40	39.688
621.73	39.713
622.06	39.739
622.38	39.786
622.71	39.802
623.04	39.809
623.37	39.837
623.70	39.837
624.02	39.821
624.35	39.906
624.68	39.932
625.01	39.881
625.34	39.872
625.66	39.865
625.99	39.877
626.32	39.933
626.65	39.901
626.98	39.906
627.30	39.909
627.63	39.949
627.96	39.913
628.29	39.873
628.61	39.934
628.94	39.992
629.27	39.992
629.60	40.048
629.92	40.007
630.25	40.056
630.58	40.061
630.91	40.156
631.23	40.150
631.56	40.140
631.89	40.206
632.21	40.235
632.54	40.203
632.87	40.192
633.19	40.270
633.52	40.277
633.85	40.326
634.18	40.310
634.50	40.257
634.83	40.318
635.16	40.339
635.48	40.333
635.81	40.386
636.14	40.437
636.46	40.469
636.79	40.366
637.11	40.409
637.44	40.400
637.77	40.446
638.09	40.490
638.42	40.428
638.75	40.342
639.07	40.414
639.40	40.414
639.73	40.393
640.05	40.364
640.38	40.433
640.70	40.468
641.03	40.478
641.36	40.494
641.68	40.515
642.01	40.571
