OOIBase32 Version 2.0.0.6 Data File
++++++++++++++++++++++++++++++++++++
Date: 01-22-2012, 22:08:23
User: Valued Ocean Optics Customer
Spectrometer Serial Number: USB2E2917
Spectrometer Channel: Master
Integration Time (msec): 4
Spectra Averaged: 10
Boxcar Smoothing: 5
Correct for Electrical Dark: Enabled
Time Normalized: Disabled
Dual-beam Reference: Disabled
Reference Channel: Master
Temperature: Not acquired
Spectrometer Type: S2000
ADC Type: USB2000
Number of Pixels in File: 2048
Graph Title: 
>>>>>Begin Spectral Data<<<<<
180.30	0.000
180.67	0.000
181.03	33.566
181.40	149.497
181.77	754.846
182.14	79.577
182.51	71.712
182.88	204.202
183.25	74.914
183.62	12.085
183.99	27.338
184.36	-155.139
184.73	15.425
185.10	-1106.508
185.46	162.291
185.83	4691.100
186.20	199.391
186.57	-3259.580
186.94	-33.507
187.31	-83.413
187.68	311.967
188.05	320.536
188.42	117.110
188.78	-341.741
189.15	-170.939
189.52	-173.187
189.89	-152.341
190.26	-210.339
190.63	-88.298
191.00	-59.722
191.37	-40.454
191.73	-140.308
192.10	-58.282
192.47	-48.902
192.84	-36.738
193.21	-11.949
193.58	1.786
193.94	2.600
194.31	4.500
194.68	4.271
195.05	0.607
195.42	-26.024
195.79	-21.809
196.15	-57.355
196.52	-44.464
196.89	-81.024
197.26	-128.088
197.63	-100.825
198.00	-132.924
198.36	-155.746
198.73	-200.874
199.10	-231.744
199.47	-82.927
199.84	-67.073
200.20	-35.892
200.57	-87.971
200.94	-61.510
201.31	-44.721
201.68	-81.910
202.04	-64.477
202.41	-50.889
202.78	-37.127
203.15	-40.592
203.51	-25.438
203.88	-17.341
204.25	-14.760
204.62	-3.785
204.98	-1.366
205.35	-10.913
205.72	-13.011
206.09	-3.605
206.46	-21.132
206.82	-40.133
207.19	-52.439
207.56	-31.247
207.92	-9.844
208.29	2.036
208.66	4.321
209.03	16.224
209.39	18.482
209.76	33.808
210.13	28.243
210.50	34.130
210.86	20.690
211.23	32.322
211.60	35.400
211.96	11.282
212.33	-32.717
212.70	-64.750
213.07	-33.854
213.43	-5.480
213.80	-21.170
214.17	-1.274
214.53	3.295
214.90	32.159
215.27	36.873
215.63	26.706
216.00	9.878
216.37	17.182
216.74	26.246
217.10	11.551
217.47	-2.900
217.84	1.803
218.20	3.073
218.57	-8.081
218.94	-38.597
219.30	-37.015
219.67	-41.236
220.04	-11.722
220.40	-13.387
220.77	-13.653
221.13	-13.741
221.50	-21.029
221.87	-44.215
222.23	-38.273
222.60	-44.557
222.97	-29.496
223.33	-34.678
223.70	-16.588
224.07	-23.474
224.43	-20.768
224.80	-20.194
225.16	-13.160
225.53	-6.795
225.90	1.380
226.26	0.033
226.63	2.499
226.99	0.028
227.36	0.613
227.73	-0.218
228.09	1.631
228.46	2.033
228.82	2.626
229.19	-0.312
229.56	-0.469
229.92	-2.792
230.29	-2.297
230.65	-0.223
231.02	4.572
231.38	2.214
231.75	1.927
232.12	-0.635
232.48	-1.803
232.85	-3.489
233.21	0.254
233.58	-0.872
233.94	-0.520
234.31	-0.740
234.68	-2.781
235.04	-4.200
235.41	-1.060
235.77	-0.324
236.14	-1.578
236.50	-2.353
236.87	-2.067
237.23	-3.373
237.60	-2.864
237.96	-2.346
238.33	-1.953
238.69	-1.766
239.06	-1.577
239.42	-1.836
239.79	-2.680
240.15	-0.787
240.52	0.782
240.88	0.844
241.25	0.880
241.61	1.008
241.98	0.678
242.34	0.544
242.71	0.537
243.07	0.862
243.44	0.829
243.80	0.754
244.17	1.469
244.53	1.274
244.90	1.495
245.26	1.519
245.63	1.442
245.99	1.707
246.36	1.801
246.72	1.623
247.09	1.333
247.45	1.714
247.81	2.314
248.18	2.189
248.54	2.157
248.91	2.922
249.27	3.472
249.64	3.560
250.00	3.578
250.36	3.258
250.73	3.975
251.09	3.798
251.46	3.709
251.82	3.331
252.19	2.134
252.55	1.984
252.91	0.816
253.28	0.459
253.64	0.522
254.01	0.668
254.37	1.899
254.73	1.245
255.10	1.396
255.46	1.139
255.83	1.152
256.19	1.424
256.55	1.627
256.92	1.385
257.28	1.435
257.65	1.276
258.01	1.156
258.37	0.693
258.74	0.851
259.10	0.860
259.46	1.074
259.83	0.775
260.19	0.774
260.55	0.646
260.92	0.992
261.28	0.729
261.64	1.199
262.01	1.315
262.37	1.786
262.73	1.719
263.10	1.937
263.46	2.033
263.82	2.618
264.19	2.550
264.55	2.772
264.91	2.309
265.28	2.501
265.64	2.434
266.00	2.714
266.37	2.462
266.73	2.664
267.09	2.649
267.46	2.495
267.82	2.473
268.18	2.476
268.54	2.194
268.91	2.379
269.27	2.534
269.63	2.359
270.00	1.892
270.36	1.904
270.72	1.745
271.08	1.717
271.45	1.572
271.81	1.597
272.17	1.421
272.53	1.627
272.90	1.724
273.26	1.866
273.62	1.727
273.98	2.130
274.35	2.193
274.71	2.541
275.07	2.877
275.43	3.199
275.80	3.305
276.16	3.781
276.52	3.448
276.88	3.337
277.25	2.906
277.61	2.916
277.97	2.715
278.33	2.987
278.69	2.923
279.06	2.620
279.42	2.300
279.78	2.323
280.14	2.171
280.50	2.454
280.87	2.434
281.23	2.421
281.59	2.644
281.95	2.615
282.31	2.353
282.68	2.056
283.04	2.143
283.40	2.181
283.76	2.088
284.12	2.120
284.48	1.971
284.85	2.185
285.21	2.225
285.57	1.964
285.93	1.948
286.29	1.669
286.65	1.755
287.02	1.618
287.38	1.623
287.74	1.508
288.10	1.495
288.46	1.491
288.82	1.155
289.18	1.126
289.54	1.198
289.91	1.198
290.27	1.547
290.63	1.579
290.99	1.855
291.35	1.832
291.71	2.034
292.07	2.033
292.43	2.102
292.79	2.255
293.16	2.406
293.52	2.745
293.88	2.669
294.24	2.552
294.60	2.687
294.96	2.609
295.32	2.589
295.68	2.630
296.04	2.482
296.40	2.743
296.76	2.742
297.12	2.742
297.49	2.526
297.85	2.616
298.21	2.734
298.57	2.839
298.93	2.810
299.29	3.010
299.65	3.125
300.01	3.418
300.37	3.161
300.73	3.267
301.09	3.493
301.45	3.872
301.81	3.894
302.17	4.097
302.53	4.094
302.89	4.158
303.25	4.237
303.61	4.242
303.97	4.390
304.33	4.654
304.69	4.648
305.05	4.634
305.41	4.305
305.77	4.540
306.13	4.450
306.49	4.292
306.85	4.490
307.21	4.601
307.57	4.487
307.93	4.242
308.29	4.219
308.65	4.191
309.01	4.039
309.37	4.248
309.73	4.114
310.09	4.125
310.45	4.170
310.81	3.988
311.17	3.702
311.53	3.680
311.89	3.820
312.25	3.658
312.61	3.630
312.96	3.778
313.32	3.673
313.68	3.546
314.04	3.562
314.40	3.634
314.76	3.497
315.12	3.629
315.48	3.692
315.84	3.597
316.20	3.727
316.56	3.781
316.92	3.619
317.27	3.662
317.63	3.721
317.99	3.675
318.35	3.650
318.71	3.786
319.07	3.709
319.43	3.615
319.79	3.577
320.15	3.592
320.50	3.627
320.86	3.716
321.22	3.550
321.58	3.515
321.94	3.431
322.30	3.437
322.66	3.422
323.01	3.449
323.37	3.641
323.73	3.742
324.09	3.498
324.45	3.267
324.81	3.006
325.17	2.963
325.52	2.824
325.88	2.776
326.24	2.638
326.60	2.533
326.96	2.417
327.31	2.287
327.67	2.058
328.03	2.190
328.39	2.343
328.75	2.454
329.11	2.430
329.46	2.565
329.82	2.647
330.18	2.532
330.54	2.503
330.90	2.593
331.25	2.510
331.61	2.502
331.97	2.495
332.33	2.438
332.68	2.523
333.04	2.727
333.40	2.766
333.76	2.685
334.11	2.749
334.47	2.725
334.83	2.635
335.19	2.595
335.54	2.718
335.90	2.799
336.26	2.787
336.62	2.686
336.97	2.421
337.33	2.342
337.69	2.196
338.05	2.251
338.40	2.382
338.76	2.444
339.12	2.459
339.48	2.470
339.83	2.221
340.19	2.222
340.55	2.248
340.90	2.426
341.26	2.583
341.62	2.812
341.97	2.666
342.33	2.611
342.69	2.526
343.04	2.509
343.40	2.463
343.76	2.661
344.12	2.675
344.47	2.789
344.83	2.623
345.19	2.536
345.54	2.412
345.90	2.453
346.26	2.411
346.61	2.526
346.97	2.414
347.32	2.291
347.68	2.101
348.04	2.076
348.39	1.884
348.75	1.882
349.11	1.647
349.46	1.653
349.82	1.585
350.18	1.647
350.53	1.520
350.89	1.588
351.24	1.580
351.60	1.660
351.96	1.564
352.31	1.688
352.67	1.795
353.02	2.007
353.38	2.068
353.74	2.176
354.09	2.071
354.45	2.102
354.80	2.153
355.16	2.164
355.52	2.070
355.87	2.097
356.23	1.992
356.58	1.965
356.94	1.854
357.29	1.796
357.65	1.786
358.00	1.834
358.36	1.823
358.72	1.801
359.07	1.864
359.43	1.863
359.78	1.830
360.14	1.815
360.49	1.726
360.85	1.779
361.20	1.717
361.56	1.632
361.91	1.601
362.27	1.620
362.62	1.504
362.98	1.441
363.33	1.447
363.69	1.475
364.04	1.443
364.40	1.454
364.75	1.312
365.11	1.285
365.46	1.280
365.82	1.209
366.17	1.204
366.53	1.195
366.88	1.247
367.24	1.299
367.59	1.249
367.95	1.308
368.30	1.292
368.66	1.378
369.01	1.362
369.37	1.430
369.72	1.521
370.08	1.533
370.43	1.644
370.78	1.554
371.14	1.529
371.49	1.542
371.85	1.513
372.20	1.540
372.56	1.560
372.91	1.589
373.26	1.556
373.62	1.525
373.97	1.416
374.33	1.327
374.68	1.319
375.03	1.324
375.39	1.309
375.74	1.281
376.10	1.261
376.45	1.278
376.80	1.265
377.16	1.266
377.51	1.230
377.87	1.302
378.22	1.369
378.57	1.455
378.93	1.412
379.28	1.477
379.63	1.510
379.99	1.573
380.34	1.587
380.70	1.645
381.05	1.667
381.40	1.692
381.76	1.705
382.11	1.736
382.46	1.699
382.82	1.720
383.17	1.716
383.52	1.720
383.88	1.677
384.23	1.604
384.58	1.578
384.94	1.511
385.29	1.515
385.64	1.514
385.99	1.437
386.35	1.445
386.70	1.397
387.05	1.329
387.41	1.282
387.76	1.262
388.11	1.306
388.47	1.314
388.82	1.317
389.17	1.324
389.52	1.309
389.88	1.354
390.23	1.331
390.58	1.395
390.93	1.427
391.29	1.462
391.64	1.487
391.99	1.477
392.34	1.448
392.70	1.457
393.05	1.394
393.40	1.353
393.75	1.260
394.11	1.267
394.46	1.205
394.81	1.179
395.16	1.089
395.52	0.995
395.87	0.910
396.22	0.847
396.57	0.743
396.92	0.663
397.28	0.575
397.63	0.537
397.98	0.429
398.33	0.327
398.68	0.250
399.04	0.220
399.39	0.171
399.74	0.130
400.09	0.101
400.44	0.098
400.80	0.118
401.15	0.140
401.50	0.159
401.85	0.176
402.20	0.224
402.55	0.199
402.90	0.233
403.26	0.235
403.61	0.253
403.96	0.240
404.31	0.254
404.66	0.271
405.01	0.249
405.36	0.240
405.72	0.201
406.07	0.150
406.42	0.146
406.77	0.082
407.12	0.087
407.47	0.044
407.82	-0.001
408.17	-0.021
408.53	-0.075
408.88	-0.109
409.23	-0.187
409.58	-0.222
409.93	-0.258
410.28	-0.265
410.63	-0.275
410.98	-0.301
411.33	-0.288
411.68	-0.217
412.03	-0.218
412.38	-0.204
412.73	-0.141
413.09	-0.053
413.44	0.043
413.79	0.158
414.14	0.261
414.49	0.348
414.84	0.441
415.19	0.541
415.54	0.578
415.89	0.681
416.24	0.814
416.59	0.872
416.94	0.920
417.29	0.949
417.64	0.989
417.99	1.007
418.34	1.039
418.69	1.075
419.04	1.070
419.39	1.099
419.74	1.106
420.09	1.071
420.44	1.078
420.79	1.082
421.14	1.092
421.49	1.078
421.84	1.068
422.19	1.067
422.54	1.044
422.89	1.050
423.24	1.033
423.59	0.994
423.94	0.967
424.29	0.919
424.64	0.860
424.99	0.805
425.34	0.756
425.68	0.706
426.03	0.628
426.38	0.579
426.73	0.524
427.08	0.464
427.43	0.462
427.78	0.468
428.13	0.494
428.48	0.528
428.83	0.545
429.18	0.583
429.53	0.575
429.87	0.616
430.22	0.609
430.57	0.606
430.92	0.620
431.27	0.601
431.62	0.586
431.97	0.549
432.32	0.524
432.67	0.489
433.01	0.442
433.36	0.424
433.71	0.372
434.06	0.363
434.41	0.331
434.76	0.333
435.11	0.337
435.45	0.350
435.80	0.360
436.15	0.372
436.50	0.403
436.85	0.425
437.20	0.454
437.54	0.479
437.89	0.470
438.24	0.485
438.59	0.468
438.94	0.450
439.29	0.437
439.63	0.440
439.98	0.411
440.33	0.401
440.68	0.412
441.03	0.409
441.37	0.424
441.72	0.464
442.07	0.500
442.42	0.538
442.76	0.591
443.11	0.610
443.46	0.627
443.81	0.651
444.16	0.665
444.50	0.669
444.85	0.669
445.20	0.646
445.55	0.608
445.89	0.550
446.24	0.482
446.59	0.401
446.94	0.322
447.28	0.243
447.63	0.179
447.98	0.113
448.32	0.014
448.67	-0.061
449.02	-0.113
449.37	-0.158
449.71	-0.173
450.06	-0.173
450.41	-0.173
450.75	-0.146
451.10	-0.156
451.45	-0.163
451.79	-0.195
452.14	-0.176
452.49	-0.185
452.84	-0.222
453.18	-0.245
453.53	-0.254
453.88	-0.251
454.22	-0.214
454.57	-0.212
454.92	-0.158
455.26	-0.110
455.61	-0.030
455.95	0.011
456.30	0.067
456.65	0.127
456.99	0.195
457.34	0.244
457.69	0.293
458.03	0.281
458.38	0.299
458.73	0.294
459.07	0.271
459.42	0.203
459.76	0.144
460.11	0.069
460.46	0.003
460.80	-0.055
461.15	-0.135
461.49	-0.237
461.84	-0.278
462.19	-0.351
462.53	-0.407
462.88	-0.457
463.22	-0.418
463.57	-0.404
463.91	-0.369
464.26	-0.339
464.61	-0.355
464.95	-0.347
465.30	-0.307
465.64	-0.312
465.99	-0.304
466.33	-0.297
466.68	-0.281
467.02	-0.327
467.37	-0.345
467.71	-0.369
468.06	-0.400
468.41	-0.431
468.75	-0.452
469.10	-0.519
469.44	-0.556
469.79	-0.584
470.13	-0.617
470.48	-0.653
470.82	-0.682
471.17	-0.701
471.51	-0.725
471.86	-0.754
472.20	-0.750
472.55	-0.781
472.89	-0.779
473.23	-0.793
473.58	-0.809
473.92	-0.823
474.27	-0.815
474.61	-0.821
474.96	-0.842
475.30	-0.852
475.65	-0.856
475.99	-0.875
476.34	-0.871
476.68	-0.883
477.02	-0.846
477.37	-0.831
477.71	-0.792
478.06	-0.725
478.40	-0.565
478.75	-0.379
479.09	-0.186
479.43	0.006
479.78	0.173
480.12	0.333
480.47	0.475
480.81	0.609
481.15	0.720
481.50	0.816
481.84	0.899
482.19	0.952
482.53	0.997
482.87	1.024
483.22	1.029
483.56	1.033
483.90	1.018
484.25	0.991
484.59	0.934
484.94	0.891
485.28	0.840
485.62	0.771
485.97	0.697
486.31	0.629
486.65	0.562
487.00	0.505
487.34	0.444
487.68	0.398
488.03	0.356
488.37	0.313
488.71	0.273
489.06	0.240
489.40	0.213
489.74	0.177
490.09	0.128
490.43	0.065
490.77	-0.011
491.11	-0.081
491.46	-0.181
491.80	-0.279
492.14	-0.373
492.49	-0.482
492.83	-0.603
493.17	-0.741
493.51	-0.858
493.86	-0.982
494.20	-1.043
494.54	-1.078
494.88	-1.113
495.23	-1.119
495.57	-1.121
495.91	-1.121
496.25	-1.130
496.60	-1.143
496.94	-1.143
497.28	-1.155
497.62	-1.183
497.97	-1.254
498.31	-1.294
498.65	-1.318
498.99	-1.333
499.33	-1.372
499.68	-1.409
500.02	-1.427
500.36	-1.446
500.70	-1.462
501.04	-1.488
501.39	-1.488
501.73	-1.485
502.07	-1.499
502.41	-1.532
502.75	-1.566
503.09	-1.555
503.44	-1.552
503.78	-1.532
504.12	-1.534
504.46	-1.536
504.80	-1.515
505.14	-1.489
505.49	-1.479
505.83	-1.472
506.17	-1.429
506.51	-1.421
506.85	-1.423
507.19	-1.421
507.53	-1.454
507.87	-1.442
508.22	-1.447
508.56	-1.473
508.90	-1.516
509.24	-1.547
509.58	-1.588
509.92	-1.640
510.26	-1.677
510.60	-1.725
510.94	-1.765
511.28	-1.809
511.63	-1.866
511.97	-1.911
512.31	-1.941
512.65	-1.951
512.99	-1.951
513.33	-1.911
513.67	-1.876
514.01	-1.818
514.35	-1.763
514.69	-1.710
515.03	-1.636
515.37	-1.551
515.71	-1.494
516.05	-1.441
516.39	-1.405
516.73	-1.380
517.07	-1.406
517.41	-1.440
517.75	-1.502
518.09	-1.569
518.43	-1.663
518.77	-1.781
519.11	-1.933
519.45	-2.064
519.79	-2.190
520.13	-2.309
520.47	-2.405
520.81	-2.471
521.15	-2.501
521.49	-2.497
521.83	-2.458
522.17	-2.396
522.51	-2.298
522.85	-2.163
523.19	-1.962
523.53	-1.732
523.87	-1.492
524.21	-1.278
524.55	-1.086
524.89	-0.920
525.23	-0.781
525.57	-0.656
525.91	-0.549
526.25	-0.449
526.58	-0.382
526.92	-0.346
527.26	-0.340
527.60	-0.356
527.94	-0.399
528.28	-0.449
528.62	-0.510
528.96	-0.583
529.30	-0.674
529.64	-0.765
529.97	-0.865
530.31	-0.956
530.65	-1.051
530.99	-1.142
531.33	-1.220
531.67	-1.262
532.01	-1.320
532.35	-1.385
532.68	-1.453
533.02	-1.528
533.36	-1.603
533.70	-1.690
534.04	-1.786
534.38	-1.896
534.71	-2.005
535.05	-2.118
535.39	-2.244
535.73	-2.303
536.07	-2.331
536.41	-2.295
536.74	-2.204
537.08	-2.107
537.42	-1.992
537.76	-1.861
538.10	-1.707
538.43	-1.560
538.77	-1.437
539.11	-1.318
539.45	-1.229
539.79	-1.160
540.12	-1.125
540.46	-1.125
540.80	-1.157
541.14	-1.213
541.47	-1.278
541.81	-1.381
542.15	-1.500
542.49	-1.628
542.82	-1.767
543.16	-1.934
543.50	-2.111
543.84	-2.283
544.17	-2.445
544.51	-2.561
544.85	-2.662
545.18	-2.789
545.52	-2.901
545.86	-3.029
546.20	-3.185
546.53	-3.334
546.87	-3.474
547.21	-3.623
547.54	-3.770
547.88	-3.887
548.22	-4.005
548.55	-4.132
548.89	-4.202
549.23	-4.243
549.56	-4.262
549.90	-4.238
550.24	-4.227
550.57	-4.201
550.91	-4.151
551.25	-4.131
551.58	-4.144
551.92	-4.162
552.26	-4.175
552.59	-4.220
552.93	-4.284
553.27	-4.350
553.60	-4.414
553.94	-4.462
554.27	-4.530
554.61	-4.597
554.95	-4.644
555.28	-4.653
555.62	-4.659
555.95	-4.651
556.29	-4.664
556.63	-4.658
556.96	-4.649
557.30	-4.613
557.63	-4.587
557.97	-4.537
558.31	-4.529
558.64	-4.517
558.98	-4.528
559.31	-4.503
559.65	-4.479
559.98	-4.427
560.32	-4.402
560.65	-4.331
560.99	-4.279
561.33	-4.199
561.66	-4.123
562.00	-4.028
562.33	-3.917
562.67	-3.804
563.00	-3.699
563.34	-3.638
563.67	-3.528
564.01	-3.436
564.34	-3.372
564.68	-3.291
565.01	-3.260
565.35	-3.222
565.68	-3.203
566.02	-3.157
566.35	-3.115
566.69	-3.079
567.02	-3.014
567.36	-3.003
567.69	-2.951
568.03	-2.914
568.36	-2.888
568.69	-2.822
569.03	-2.789
569.36	-2.707
569.70	-2.693
570.03	-2.637
570.37	-2.618
570.70	-2.583
571.04	-2.556
571.37	-2.534
571.70	-2.526
572.04	-2.509
572.37	-2.515
572.71	-2.523
573.04	-2.538
573.37	-2.536
573.71	-2.589
574.04	-2.604
574.38	-2.644
574.71	-2.701
575.04	-2.755
575.38	-2.828
575.71	-2.899
576.05	-2.977
576.38	-3.030
576.71	-3.097
577.05	-3.180
577.38	-3.239
577.71	-3.323
578.05	-3.397
578.38	-3.428
578.71	-3.493
579.05	-3.520
579.38	-3.562
579.71	-3.601
580.05	-3.641
580.38	-3.696
580.71	-3.671
581.05	-3.672
581.38	-3.663
581.71	-3.669
582.05	-3.673
582.38	-3.631
582.71	-3.589
583.04	-3.558
583.38	-3.491
583.71	-3.433
584.04	-3.329
584.38	-3.273
584.71	-3.188
585.04	-3.074
585.37	-2.959
585.71	-2.808
586.04	-2.703
586.37	-2.577
586.70	-2.447
587.04	-2.353
587.37	-2.277
587.70	-2.223
588.03	-2.175
588.37	-2.130
588.70	-2.127
589.03	-2.125
589.36	-2.163
589.69	-2.184
590.03	-2.217
590.36	-2.240
590.69	-2.270
591.02	-2.250
591.35	-2.240
591.69	-2.247
592.02	-2.222
592.35	-2.193
592.68	-2.120
593.01	-2.068
593.35	-2.017
593.68	-1.991
594.01	-1.963
594.34	-1.932
594.67	-1.928
595.00	-1.925
595.34	-1.904
595.67	-1.932
596.00	-1.957
596.33	-2.033
596.66	-2.128
596.99	-2.207
597.32	-2.307
597.65	-2.358
597.99	-2.460
598.32	-2.497
598.65	-2.535
598.98	-2.569
599.31	-2.585
599.64	-2.602
599.97	-2.567
600.30	-2.476
600.63	-2.417
600.96	-2.302
601.30	-2.264
601.63	-2.155
601.96	-2.093
602.29	-2.089
602.62	-2.061
602.95	-2.075
603.28	-2.039
603.61	-2.054
603.94	-2.079
604.27	-2.103
604.60	-2.130
604.93	-2.144
605.26	-2.199
605.59	-2.277
605.92	-2.275
606.25	-2.297
606.58	-2.283
606.91	-2.299
607.24	-2.264
607.57	-2.255
607.90	-2.226
608.23	-2.253
608.56	-2.271
608.89	-2.277
609.22	-2.298
609.55	-2.331
609.88	-2.365
610.21	-2.413
610.54	-2.479
610.87	-2.574
611.20	-2.658
611.53	-2.733
611.86	-2.758
612.19	-2.832
612.52	-2.883
612.85	-2.918
613.18	-2.944
613.51	-2.992
613.84	-2.982
614.17	-2.969
614.49	-2.983
614.82	-2.994
615.15	-3.000
615.48	-3.012
615.81	-2.989
616.14	-2.965
616.47	-2.947
616.80	-2.965
617.13	-2.957
617.46	-2.987
617.78	-2.986
618.11	-2.971
618.44	-2.937
618.77	-2.975
619.10	-2.989
619.43	-3.006
619.76	-3.012
620.09	-3.018
620.41	-2.975
620.74	-2.964
621.07	-2.886
621.40	-2.888
621.73	-2.837
622.06	-2.811
622.38	-2.737
622.71	-2.684
623.04	-2.592
623.37	-2.548
623.70	-2.472
624.02	-2.406
624.35	-2.308
624.68	-2.293
625.01	-2.229
625.34	-2.195
625.66	-2.139
625.99	-2.126
626.32	-2.095
626.65	-2.128
626.98	-2.125
627.30	-2.166
627.63	-2.213
627.96	-2.277
628.29	-2.307
628.61	-2.347
628.94	-2.378
629.27	-2.418
629.60	-2.436
629.92	-2.486
630.25	-2.486
630.58	-2.504
630.91	-2.483
631.23	-2.507
631.56	-2.497
631.89	-2.526
632.21	-2.521
632.54	-2.547
632.87	-2.608
633.19	-2.631
633.52	-2.652
633.85	-2.674
634.18	-2.678
634.50	-2.727
634.83	-2.713
635.16	-2.751
635.48	-2.806
635.81	-2.854
636.14	-2.900
636.46	-2.917
636.79	-2.948
637.11	-2.964
637.44	-3.013
637.77	-3.076
638.09	-3.090
638.42	-3.145
638.75	-3.174
639.07	-3.160
639.40	-3.200
639.73	-3.203
640.05	-3.192
640.38	-3.224
640.70	-3.216
641.03	-3.178
641.36	-3.153
641.68	-3.149
642.01	-3.082
642.33	-3.032
642.66	-2.970
642.98	-2.861
643.31	-2.785
643.64	-2.708
643.96	-2.594
644.29	-2.554
644.61	-2.491
644.94	-2.372
