OOIBase32 Version 2.0.0.6 Data File
++++++++++++++++++++++++++++++++++++
Date: 01-23-2012, 21:37:36
User: Valued Ocean Optics Customer
Spectrometer Serial Number: USB2E2917
Spectrometer Channel: Master
Integration Time (msec): 5
Spectra Averaged: 10
Boxcar Smoothing: 5
Correct for Electrical Dark: Enabled
Time Normalized: Disabled
Dual-beam Reference: Disabled
Reference Channel: Master
Temperature: Not acquired
Spectrometer Type: S2000
ADC Type: USB2000
Number of Pixels in File: 2048
Graph Title: 
>>>>>Begin Spectral Data<<<<<
180.30	0.000
180.67	0.000
181.03	119.372
181.40	-295.957
181.77	9420.133
182.14	110.282
182.51	213.305
182.88	1232.733
183.25	7.609
183.62	-2.752
183.99	36.849
184.36	-201.313
184.73	139.656
185.10	58.991
185.46	143.205
185.83	34.083
186.20	-62.288
186.57	922.310
186.94	47.489
187.31	96.370
187.68	-241.127
188.05	25.865
188.42	1.455
188.78	37.720
189.15	31.878
189.52	31.465
189.89	20.073
190.26	19.664
190.63	30.101
191.00	33.680
191.37	26.911
191.73	29.828
192.10	32.249
192.47	37.225
192.84	21.974
193.21	31.216
193.58	31.413
193.94	24.786
194.31	10.132
194.68	12.645
195.05	2.723
195.42	-11.637
195.79	-27.635
196.15	-27.445
196.52	-26.721
196.89	-33.252
197.26	-44.372
197.63	-55.109
198.00	-49.234
198.36	-44.231
198.73	-48.804
199.10	-32.690
199.47	-18.514
199.84	-13.751
200.20	0.735
200.57	-16.425
200.94	-18.513
201.31	-13.894
201.68	5.331
202.04	12.946
202.41	33.340
202.78	27.648
203.15	29.082
203.51	-0.171
203.88	-2.207
204.25	-21.359
204.62	-0.477
204.98	12.946
205.35	16.978
205.72	9.702
206.09	-5.433
206.46	-11.783
206.82	4.854
207.19	-12.064
207.56	19.302
207.92	23.950
208.29	33.819
208.66	36.362
209.03	42.819
209.39	26.108
209.76	21.744
210.13	39.865
210.50	40.877
210.86	47.014
211.23	54.946
211.60	46.791
211.96	48.437
212.33	42.988
212.70	42.208
213.07	25.161
213.43	29.784
213.80	33.094
214.17	22.937
214.53	22.996
214.90	19.538
215.27	14.132
215.63	15.725
216.00	11.070
216.37	16.876
216.74	8.987
217.10	22.997
217.47	25.184
217.84	21.948
218.20	27.824
218.57	32.651
218.94	22.632
219.30	24.905
219.67	23.963
220.04	19.951
220.40	5.161
220.77	7.912
221.13	0.906
221.50	-0.368
221.87	3.240
222.23	3.008
222.60	-0.485
222.97	2.308
223.33	0.266
223.70	0.073
224.07	3.559
224.43	10.309
224.80	10.656
225.16	10.134
225.53	9.251
225.90	4.018
226.26	1.618
226.63	0.254
226.99	0.623
227.36	2.490
227.73	2.641
228.09	-0.176
228.46	-0.422
228.82	0.928
229.19	0.684
229.56	1.061
229.92	3.756
230.29	6.667
230.65	8.122
231.02	8.929
231.38	6.596
231.75	6.279
232.12	10.225
232.48	10.517
232.85	9.090
233.21	10.073
233.58	13.051
233.94	15.750
234.31	14.428
234.68	11.739
235.04	9.724
235.41	10.175
235.77	10.790
236.14	9.531
236.50	7.397
236.87	6.805
237.23	5.361
237.60	3.414
237.96	2.674
238.33	4.673
238.69	5.551
239.06	5.744
239.42	5.470
239.79	5.065
240.15	5.102
240.52	5.461
240.88	5.278
241.25	6.095
241.61	6.108
241.98	6.329
242.34	5.285
242.71	5.703
243.07	5.800
243.44	6.064
243.80	5.861
244.17	5.843
244.53	6.136
244.90	6.043
245.26	5.580
245.63	5.454
245.99	5.274
246.36	5.652
246.72	5.018
247.09	4.833
247.45	4.443
247.81	4.226
248.18	4.077
248.54	3.600
248.91	3.656
249.27	4.218
249.64	4.187
250.00	4.126
250.36	4.370
250.73	5.200
251.09	5.784
251.46	6.611
251.82	7.498
252.19	7.654
252.55	7.339
252.91	7.466
253.28	6.994
253.64	7.361
254.01	7.246
254.37	6.501
254.73	5.965
255.10	5.698
255.46	5.163
255.83	4.353
256.19	4.154
256.55	4.265
256.92	4.119
257.28	4.082
257.65	4.178
258.01	4.126
258.37	3.951
258.74	3.922
259.10	4.028
259.46	4.217
259.83	4.359
260.19	4.254
260.55	4.266
260.92	4.544
261.28	4.695
261.64	4.405
262.01	4.322
262.37	4.188
262.73	4.101
263.10	3.769
263.46	3.712
263.82	3.965
264.19	4.072
264.55	4.196
264.91	4.007
265.28	4.108
265.64	3.976
266.00	3.911
266.37	4.232
266.73	4.543
267.09	4.577
267.46	4.642
267.82	4.497
268.18	4.706
268.54	4.704
268.91	4.812
269.27	4.752
269.63	5.001
270.00	5.178
270.36	5.040
270.72	4.728
271.08	4.462
271.45	4.279
271.81	4.441
272.17	4.438
272.53	4.254
272.90	3.956
273.26	3.841
273.62	3.577
273.98	3.485
274.35	3.348
274.71	3.642
275.07	3.982
275.43	4.118
275.80	4.207
276.16	4.334
276.52	4.248
276.88	4.350
277.25	4.632
277.61	4.800
277.97	4.784
278.33	4.751
278.69	4.514
279.06	4.727
279.42	4.304
279.78	3.969
280.14	3.757
280.50	4.049
280.87	4.079
281.23	4.080
281.59	3.938
281.95	3.861
282.31	3.998
282.68	4.135
283.04	4.004
283.40	4.279
283.76	4.336
284.12	4.447
284.48	4.463
284.85	4.426
285.21	4.136
285.57	4.343
285.93	4.439
286.29	4.408
286.65	4.289
287.02	4.270
287.38	4.286
287.74	4.365
288.10	4.277
288.46	4.157
288.82	4.124
289.18	4.132
289.54	4.034
289.91	4.215
290.27	4.244
290.63	4.396
290.99	4.180
291.35	3.974
291.71	4.199
292.07	4.027
292.43	4.196
292.79	4.474
293.16	4.694
293.52	4.784
293.88	4.643
294.24	4.638
294.60	4.455
294.96	4.538
295.32	4.665
295.68	4.324
296.04	4.605
296.40	4.489
296.76	4.444
297.12	4.476
297.49	4.616
297.85	4.733
298.21	4.810
298.57	4.937
298.93	5.080
299.29	5.192
299.65	5.388
300.01	5.384
300.37	5.400
300.73	5.489
301.09	5.512
301.45	5.426
301.81	5.470
302.17	5.461
302.53	5.552
302.89	5.569
303.25	5.390
303.61	5.521
303.97	5.435
304.33	5.488
304.69	5.389
305.05	5.422
305.41	5.346
305.77	5.392
306.13	5.569
306.49	5.787
306.85	5.835
307.21	5.988
307.57	6.037
307.93	6.166
308.29	6.313
308.65	6.433
309.01	6.435
309.37	6.636
309.73	6.632
310.09	6.616
310.45	6.433
310.81	6.451
311.17	6.380
311.53	6.333
311.89	6.411
312.25	6.407
312.61	6.416
312.96	6.417
313.32	6.281
313.68	6.324
314.04	6.362
314.40	6.456
314.76	6.502
315.12	6.636
315.48	6.738
315.84	6.618
316.20	6.673
316.56	6.684
316.92	6.755
317.27	6.748
317.63	6.662
317.99	6.474
318.35	6.479
318.71	6.420
319.07	6.563
319.43	6.542
319.79	6.658
320.15	6.548
320.50	6.480
320.86	6.531
321.22	6.646
321.58	6.792
321.94	6.883
322.30	7.013
322.66	7.166
323.01	7.148
323.37	7.256
323.73	7.332
324.09	7.500
324.45	7.608
324.81	7.582
325.17	7.645
325.52	7.587
325.88	7.755
326.24	7.808
326.60	7.912
326.96	7.900
327.31	7.888
327.67	7.789
328.03	7.647
328.39	7.541
328.75	7.679
329.11	7.799
329.46	7.831
329.82	7.895
330.18	7.924
330.54	7.814
330.90	7.849
331.25	7.715
331.61	7.668
331.97	7.817
332.33	8.082
332.68	7.952
333.04	7.878
333.40	8.018
333.76	7.986
334.11	7.934
334.47	8.007
334.83	8.016
335.19	8.232
335.54	8.399
335.90	8.446
336.26	8.270
336.62	8.340
336.97	8.395
337.33	8.315
337.69	8.268
338.05	8.304
338.40	8.239
338.76	8.338
339.12	8.285
339.48	8.311
339.83	8.243
340.19	8.312
340.55	8.243
340.90	8.152
341.26	8.079
341.62	8.125
341.97	8.156
342.33	8.272
342.69	8.203
343.04	8.176
343.40	8.103
343.76	8.169
344.12	8.247
344.47	8.410
344.83	8.461
345.19	8.516
345.54	8.547
345.90	8.514
346.26	8.432
346.61	8.502
346.97	8.502
347.32	8.586
347.68	8.522
348.04	8.529
348.39	8.464
348.75	8.486
349.11	8.549
349.46	8.491
349.82	8.464
350.18	8.509
350.53	8.434
350.89	8.531
351.24	8.461
351.60	8.561
351.96	8.488
352.31	8.537
352.67	8.493
353.02	8.418
353.38	8.404
353.74	8.437
354.09	8.445
354.45	8.533
354.80	8.436
355.16	8.404
355.52	8.325
355.87	8.319
356.23	8.263
356.58	8.297
356.94	8.350
357.29	8.373
357.65	8.321
358.00	8.292
358.36	8.273
358.72	8.359
359.07	8.429
359.43	8.512
359.78	8.572
360.14	8.567
360.49	8.574
360.85	8.583
361.20	8.640
361.56	8.685
361.91	8.695
362.27	8.680
362.62	8.613
362.98	8.561
363.33	8.526
363.69	8.457
364.04	8.485
364.40	8.470
364.75	8.410
365.11	8.442
365.46	8.465
365.82	8.486
366.17	8.450
366.53	8.519
366.88	8.543
367.24	8.582
367.59	8.627
367.95	8.591
368.30	8.559
368.66	8.625
369.01	8.595
369.37	8.600
369.72	8.609
370.08	8.657
370.43	8.655
370.78	8.693
371.14	8.633
371.49	8.679
371.85	8.721
372.20	8.805
372.56	8.837
372.91	8.825
373.26	8.828
373.62	8.800
373.97	8.815
374.33	8.797
374.68	8.792
375.03	8.843
375.39	8.813
375.74	8.864
376.10	8.821
376.45	8.853
376.80	8.865
377.16	8.900
377.51	8.963
377.87	8.953
378.22	8.960
378.57	9.018
378.93	9.043
379.28	9.126
379.63	9.122
379.99	9.178
380.34	9.205
380.70	9.243
381.05	9.292
381.40	9.308
381.76	9.357
382.11	9.442
382.46	9.414
382.82	9.410
383.17	9.424
383.52	9.483
383.88	9.506
384.23	9.514
384.58	9.528
384.94	9.507
385.29	9.554
385.64	9.592
385.99	9.572
386.35	9.673
386.70	9.716
387.05	9.724
387.41	9.757
387.76	9.779
388.11	9.804
388.47	9.882
388.82	9.947
389.17	9.950
389.52	9.977
389.88	10.064
390.23	10.067
390.58	10.126
390.93	10.185
391.29	10.226
391.64	10.293
391.99	10.302
392.34	10.296
392.70	10.319
393.05	10.340
393.40	10.384
393.75	10.403
394.11	10.438
394.46	10.476
394.81	10.486
395.16	10.479
395.52	10.488
395.87	10.522
396.22	10.523
396.57	10.557
396.92	10.617
397.28	10.613
397.63	10.625
397.98	10.666
398.33	10.714
398.68	10.780
399.04	10.854
399.39	10.892
399.74	10.912
400.09	10.985
400.44	11.015
400.80	11.040
401.15	11.090
401.50	11.126
401.85	11.176
402.20	11.172
402.55	11.189
402.90	11.190
403.26	11.255
403.61	11.325
403.96	11.349
404.31	11.374
404.66	11.432
405.01	11.488
405.36	11.556
405.72	11.569
406.07	11.676
406.42	11.703
406.77	11.728
407.12	11.731
407.47	11.782
407.82	11.819
408.17	11.854
408.53	11.889
408.88	11.932
409.23	11.974
409.58	12.010
409.93	12.006
410.28	12.078
410.63	12.136
410.98	12.246
411.33	12.244
411.68	12.264
412.03	12.303
412.38	12.349
412.73	12.375
413.09	12.427
413.44	12.458
413.79	12.510
414.14	12.502
414.49	12.551
414.84	12.531
415.19	12.600
415.54	12.658
415.89	12.689
416.24	12.714
416.59	12.755
416.94	12.749
417.29	12.789
417.64	12.802
417.99	12.864
418.34	12.898
418.69	12.942
419.04	12.968
419.39	13.018
419.74	13.054
420.09	13.093
420.44	13.135
420.79	13.195
421.14	13.210
421.49	13.247
421.84	13.284
422.19	13.313
422.54	13.349
422.89	13.389
423.24	13.397
423.59	13.442
423.94	13.462
424.29	13.490
424.64	13.507
424.99	13.579
425.34	13.635
425.68	13.667
426.03	13.742
426.38	13.782
426.73	13.830
427.08	13.907
427.43	13.954
427.78	14.015
428.13	14.061
428.48	14.118
428.83	14.160
429.18	14.174
429.53	14.198
429.87	14.206
430.22	14.211
430.57	14.239
430.92	14.271
431.27	14.305
431.62	14.325
431.97	14.350
432.32	14.360
432.67	14.383
433.01	14.415
433.36	14.456
433.71	14.497
434.06	14.554
434.41	14.586
434.76	14.637
435.11	14.679
435.45	14.723
435.80	14.725
436.15	14.749
436.50	14.761
436.85	14.799
437.20	14.822
437.54	14.850
437.89	14.870
438.24	14.897
438.59	14.879
438.94	14.886
439.29	14.898
439.63	14.938
439.98	14.983
440.33	15.007
440.68	15.019
441.03	15.045
441.37	15.041
441.72	15.035
442.07	15.041
442.42	15.070
442.76	15.069
443.11	15.066
443.46	15.038
443.81	15.014
444.16	15.014
444.50	15.015
444.85	15.008
445.20	15.006
445.55	15.025
445.89	15.023
446.24	14.994
446.59	15.015
446.94	15.034
447.28	15.064
447.63	15.086
447.98	15.093
448.32	15.082
448.67	15.080
449.02	15.078
449.37	15.061
449.71	15.050
450.06	15.065
450.41	15.038
450.75	15.032
451.10	15.009
451.45	15.021
451.79	15.007
452.14	15.015
452.49	15.000
452.84	15.019
453.18	15.027
453.53	15.044
453.88	15.056
454.22	15.070
454.57	15.066
454.92	15.092
455.26	15.058
455.61	15.062
455.95	15.080
456.30	15.090
456.65	15.080
456.99	15.054
457.34	15.051
457.69	15.050
458.03	15.045
458.38	15.036
458.73	15.019
459.07	15.029
459.42	15.032
459.76	15.006
460.11	14.998
460.46	14.999
460.80	15.040
461.15	15.041
461.49	15.049
461.84	15.050
462.19	15.076
462.53	15.077
462.88	15.074
463.22	15.062
463.57	15.092
463.91	15.113
464.26	15.135
464.61	15.110
464.95	15.110
465.30	15.117
465.64	15.118
465.99	15.106
466.33	15.111
466.68	15.129
467.02	15.123
467.37	15.122
467.71	15.089
468.06	15.058
468.41	15.062
468.75	15.043
469.10	15.026
469.44	15.008
469.79	15.004
470.13	15.010
470.48	15.001
470.82	15.024
471.17	15.023
471.51	15.037
471.86	15.041
472.20	15.031
472.55	15.032
472.89	15.017
473.23	15.017
473.58	15.005
473.92	15.013
474.27	15.013
474.61	15.000
474.96	14.986
475.30	14.965
475.65	14.969
475.99	14.982
476.34	14.994
476.68	14.997
477.02	15.007
477.37	15.013
477.71	15.034
478.06	15.061
478.40	15.128
478.75	15.236
479.09	15.362
479.43	15.489
479.78	15.668
480.12	15.876
480.47	16.119
480.81	16.363
481.15	16.614
481.50	16.855
481.84	17.145
482.19	17.466
482.53	17.723
482.87	17.850
483.22	17.832
483.56	17.661
483.90	17.394
484.25	17.050
484.59	16.732
484.94	16.492
485.28	16.252
485.62	15.958
485.97	15.609
486.31	15.296
486.65	15.134
487.00	15.105
487.34	15.194
487.68	15.336
488.03	15.536
488.37	15.692
488.71	15.748
489.06	15.756
489.40	15.749
489.74	15.738
490.09	15.747
490.43	15.720
490.77	15.695
491.11	15.688
491.46	15.699
491.80	15.696
492.14	15.689
492.49	15.652
492.83	15.657
493.17	15.629
493.51	15.631
493.86	15.617
494.20	15.623
494.54	15.650
494.88	15.664
495.23	15.674
495.57	15.696
495.91	15.722
496.25	15.740
496.60	15.745
496.94	15.797
497.28	15.820
497.62	15.861
497.97	15.896
498.31	15.923
498.65	15.932
498.99	15.963
499.33	15.974
499.68	16.004
500.02	16.036
500.36	16.040
500.70	16.058
501.04	16.074
501.39	16.078
501.73	16.133
502.07	16.170
502.41	16.212
502.75	16.252
503.09	16.309
503.44	16.339
503.78	16.379
504.12	16.447
504.46	16.495
504.80	16.551
505.14	16.599
505.49	16.607
505.83	16.641
506.17	16.692
506.51	16.713
506.85	16.728
507.19	16.770
507.53	16.814
507.87	16.852
508.22	16.891
508.56	16.925
508.90	16.980
509.24	17.039
509.58	17.073
509.92	17.107
510.26	17.171
510.60	17.245
510.94	17.280
511.28	17.324
511.63	17.386
511.97	17.420
512.31	17.484
512.65	17.529
512.99	17.592
513.33	17.678
513.67	17.771
514.01	17.848
514.35	17.915
514.69	18.000
515.03	18.070
515.37	18.137
515.71	18.233
516.05	18.302
516.39	18.367
516.73	18.404
517.07	18.458
517.41	18.504
517.75	18.540
518.09	18.593
518.43	18.644
518.77	18.700
519.11	18.769
519.45	18.821
519.79	18.877
520.13	18.970
520.47	19.063
520.81	19.167
521.15	19.281
521.49	19.419
521.83	19.529
522.17	19.662
522.51	19.805
522.85	19.949
523.19	20.140
523.53	20.392
523.87	20.629
524.21	20.876
524.55	21.090
524.89	21.296
525.23	21.495
525.57	21.683
525.91	21.858
526.25	22.017
526.58	22.144
526.92	22.255
527.26	22.322
527.60	22.387
527.94	22.428
528.28	22.471
528.62	22.520
528.96	22.560
529.30	22.614
529.64	22.642
529.97	22.685
530.31	22.746
530.65	22.825
530.99	22.920
531.33	23.021
531.67	23.146
532.01	23.271
532.35	23.362
532.68	23.455
533.02	23.531
533.36	23.644
533.70	23.749
534.04	23.832
534.38	23.913
534.71	24.034
535.05	24.147
535.39	24.283
535.73	24.444
536.07	24.642
536.41	24.866
536.74	25.111
537.08	25.334
537.42	25.540
537.76	25.791
538.10	26.045
538.43	26.259
538.77	26.471
539.11	26.656
539.45	26.814
539.79	26.952
540.12	27.059
540.46	27.140
540.80	27.232
541.14	27.328
541.47	27.424
541.81	27.528
542.15	27.617
542.49	27.712
542.82	27.801
543.16	27.934
543.50	28.072
543.84	28.245
544.17	28.432
544.51	28.592
544.85	28.769
545.18	28.932
545.52	29.049
545.86	29.206
546.20	29.381
546.53	29.556
546.87	29.717
547.21	29.911
547.54	30.080
547.88	30.265
548.22	30.467
548.55	30.667
548.89	30.879
549.23	31.125
549.56	31.327
549.90	31.511
550.24	31.704
550.57	31.861
550.91	31.983
551.25	32.155
551.58	32.295
551.92	32.494
552.26	32.653
552.59	32.801
552.93	32.944
553.27	33.107
553.60	33.277
553.94	33.489
554.27	33.674
554.61	33.904
554.95	34.089
555.28	34.312
555.62	34.464
555.95	34.702
556.29	34.903
556.63	35.129
556.96	35.307
557.30	35.486
557.63	35.631
557.97	35.822
558.31	35.985
558.64	36.187
558.98	36.330
559.31	36.481
559.65	36.580
559.98	36.737
560.32	36.868
560.65	37.042
560.99	37.176
561.33	37.328
561.66	37.455
562.00	37.627
562.33	37.717
562.67	37.902
563.00	38.056
563.34	38.169
563.67	38.286
564.01	38.376
564.34	38.492
564.68	38.625
565.01	38.738
565.35	38.899
565.68	38.990
566.02	39.121
566.35	39.263
566.69	39.374
567.02	39.542
567.36	39.679
567.69	39.839
568.03	39.968
568.36	40.105
568.69	40.235
569.03	40.340
569.36	40.446
569.70	40.594
570.03	40.693
570.37	40.812
570.70	40.903
571.04	41.026
571.37	41.123
571.70	41.275
572.04	41.385
572.37	41.500
572.71	41.611
573.04	41.764
573.37	41.858
573.71	41.970
574.04	42.094
574.38	42.235
574.71	42.386
575.04	42.533
575.38	42.613
575.71	42.735
576.05	42.880
576.38	43.037
576.71	43.160
577.05	43.279
577.38	43.404
577.71	43.574
578.05	43.688
578.38	43.760
578.71	43.875
579.05	43.997
579.38	44.125
579.71	44.208
580.05	44.219
580.38	44.290
580.71	44.406
581.05	44.495
581.38	44.554
581.71	44.684
582.05	44.792
582.38	44.878
582.71	44.987
583.04	45.070
583.38	45.197
583.71	45.330
584.04	45.421
584.38	45.488
584.71	45.564
585.04	45.639
585.37	45.706
585.71	45.801
586.04	45.870
586.37	45.963
586.70	46.037
587.04	46.065
587.37	46.166
587.70	46.258
588.03	46.338
588.37	46.428
588.70	46.514
589.03	46.565
589.36	46.644
589.69	46.751
590.03	46.781
590.36	46.847
590.69	46.932
591.02	46.995
591.35	47.041
591.69	47.117
592.02	47.150
592.35	47.177
592.68	47.269
593.01	47.274
593.35	47.320
593.68	47.387
594.01	47.440
594.34	47.543
594.67	47.584
595.00	47.617
595.34	47.654
595.67	47.698
596.00	47.779
596.33	47.766
596.66	47.881
596.99	47.946
597.32	48.042
597.65	48.156
597.99	48.222
598.32	48.317
598.65	48.507
598.98	48.613
599.31	48.773
599.64	48.872
599.97	49.041
600.30	49.087
600.63	49.128
600.96	49.188
601.30	49.210
601.63	49.216
601.96	49.237
602.29	49.248
602.62	49.326
602.95	49.382
603.28	49.419
603.61	49.447
603.94	49.527
604.27	49.620
604.60	49.703
604.93	49.765
605.26	49.877
605.59	50.009
605.92	50.137
606.25	50.203
606.58	50.286
606.91	50.389
607.24	50.473
607.57	50.498
607.90	50.556
608.23	50.592
608.56	50.714
608.89	50.792
609.22	50.851
609.55	50.849
609.88	50.955
610.21	51.036
610.54	51.184
610.87	51.315
611.20	51.473
611.53	51.672
611.86	51.826
612.19	51.921
612.52	52.044
612.85	52.176
613.18	52.362
613.51	52.429
613.84	52.496
614.17	52.549
614.49	52.615
614.82	52.705
615.15	52.704
615.48	52.792
615.81	52.879
616.14	52.949
616.47	52.996
616.80	52.970
617.13	53.046
617.46	53.083
617.78	53.118
618.11	53.203
618.44	53.290
618.77	53.369
619.10	53.393
619.43	53.422
619.76	53.516
620.09	53.614
620.41	53.789
620.74	53.874
621.07	53.997
621.40	54.090
621.73	54.128
622.06	54.133
622.38	54.206
622.71	54.235
623.04	54.317
623.37	54.329
623.70	54.346
624.02	54.330
624.35	54.375
624.68	54.456
625.01	54.526
625.34	54.604
625.66	54.688
625.99	54.752
626.32	54.880
626.65	54.994
626.98	55.116
627.30	55.270
627.63	55.387
627.96	55.488
628.29	55.575
628.61	55.663
628.94	55.767
629.27	55.879
629.60	56.006
629.92	56.085
630.25	56.149
630.58	56.187
630.91	56.203
631.23	56.280
631.56	56.412
631.89	56.469
632.21	56.562
632.54	56.597
632.87	56.692
633.19	56.770
633.52	56.892
633.85	56.946
634.18	57.047
634.50	57.111
634.83	57.220
635.16	57.275
635.48	57.366
635.81	57.468
636.14	57.672
636.46	57.755
636.79	57.856
637.11	57.925
637.44	58.111
637.77	58.179
638.09	58.227
638.42	58.319
638.75	58.394
639.07	58.527
639.40	58.617
639.73	58.647
640.05	58.829
640.38	58.902
640.70	58.963
641.03	59.000
641.36	59.160
641.68	59.364
642.01	59.433
642.33	59.538
642.66	59.581
