OOIBase32 Version 2.0.0.6 Data File
++++++++++++++++++++++++++++++++++++
Date: 01-23-2012, 21:39:29
User: Valued Ocean Optics Customer
Spectrometer Serial Number: USB2E2917
Spectrometer Channel: Master
Integration Time (msec): 5
Spectra Averaged: 10
Boxcar Smoothing: 5
Correct for Electrical Dark: Enabled
Time Normalized: Disabled
Dual-beam Reference: Disabled
Reference Channel: Master
Temperature: Not acquired
Spectrometer Type: S2000
ADC Type: USB2000
Number of Pixels in File: 2048
Graph Title: 
>>>>>Begin Spectral Data<<<<<
180.30	0.000
180.67	0.000
181.03	247.493
181.40	-56.004
181.77	4332.800
182.14	50.766
182.51	147.365
182.88	-611.547
183.25	347.988
183.62	-84.488
183.99	56.637
184.36	-187.792
184.73	272.555
185.10	-57.805
185.46	68.310
185.83	26.019
186.20	128.991
186.57	-134.358
186.94	34.230
187.31	158.902
187.68	-285.708
188.05	-61.332
188.42	-8.077
188.78	-18.220
189.15	-12.244
189.52	-4.997
189.89	-15.045
190.26	-42.120
190.63	-12.656
191.00	-18.598
191.37	-13.019
191.73	-1.704
192.10	13.148
192.47	-3.700
192.84	-1.024
193.21	-0.464
193.58	2.926
193.94	4.955
194.31	0.037
194.68	3.847
195.05	1.078
195.42	-12.030
195.79	-16.109
196.15	-17.937
196.52	-11.148
196.89	-13.539
197.26	-8.609
197.63	-8.508
198.00	-12.471
198.36	-2.389
198.73	-13.615
199.10	-13.057
199.47	0.041
199.84	5.203
200.20	17.134
200.57	0.126
200.94	-4.430
201.31	-13.626
201.68	-5.121
202.04	-7.090
202.41	0.675
202.78	0.108
203.15	1.397
203.51	-14.652
203.88	-14.372
204.25	-21.909
204.62	-3.755
204.98	2.063
205.35	10.812
205.72	18.304
206.09	18.974
206.46	16.404
206.82	17.930
207.19	13.619
207.56	16.003
207.92	10.335
208.29	14.371
208.66	15.446
209.03	12.916
209.39	0.110
209.76	-14.559
210.13	-11.740
210.50	-18.026
210.86	-8.463
211.23	9.474
211.60	7.999
211.96	18.659
212.33	13.383
212.70	18.905
213.07	16.578
213.43	25.997
213.80	26.343
214.17	26.118
214.53	28.276
214.90	20.733
215.27	13.835
215.63	14.130
216.00	-6.014
216.37	-4.043
216.74	-14.893
217.10	-5.946
217.47	-19.913
217.84	-18.810
218.20	-2.460
218.57	2.105
218.94	0.584
219.30	4.785
219.67	5.432
220.04	12.038
220.40	10.610
220.77	8.862
221.13	1.083
221.50	1.504
221.87	5.313
222.23	-4.296
222.60	-1.557
222.97	-1.818
223.33	-6.572
223.70	-8.808
224.07	-2.607
224.43	-0.821
224.80	2.958
225.16	3.683
225.53	6.161
225.90	2.710
226.26	1.660
226.63	0.235
226.99	1.843
227.36	3.397
227.73	3.562
228.09	1.316
228.46	2.428
228.82	2.616
229.19	2.430
229.56	0.215
229.92	2.669
230.29	5.819
230.65	6.071
231.02	6.083
231.38	4.179
231.75	7.015
232.12	8.768
232.48	9.121
232.85	8.802
233.21	10.271
233.58	10.701
233.94	9.544
234.31	5.795
234.68	5.191
235.04	5.760
235.41	6.906
235.77	4.714
236.14	3.326
236.50	0.789
236.87	0.565
237.23	-1.682
237.60	-0.334
237.96	0.697
238.33	2.445
238.69	2.839
239.06	2.054
239.42	2.423
239.79	2.771
240.15	3.349
240.52	4.145
240.88	4.717
241.25	5.420
241.61	4.726
241.98	4.558
242.34	4.264
242.71	4.559
243.07	5.266
243.44	5.179
243.80	5.042
244.17	4.812
244.53	4.671
244.90	4.474
245.26	4.479
245.63	4.567
245.99	4.771
246.36	4.955
246.72	4.576
247.09	4.405
247.45	4.262
247.81	4.259
248.18	4.177
248.54	4.183
248.91	4.116
249.27	4.560
249.64	4.535
250.00	4.593
250.36	4.256
250.73	4.618
251.09	4.307
251.46	4.657
251.82	5.051
252.19	5.596
252.55	5.554
252.91	5.519
253.28	4.250
253.64	4.659
254.01	4.211
254.37	4.376
254.73	4.740
255.10	4.719
255.46	4.305
255.83	3.718
256.19	3.402
256.55	3.373
256.92	3.255
257.28	3.835
257.65	3.989
258.01	4.009
258.37	3.799
258.74	3.712
259.10	3.724
259.46	3.868
259.83	3.983
260.19	3.928
260.55	3.880
260.92	3.979
261.28	3.661
261.64	3.325
262.01	3.230
262.37	3.220
262.73	2.798
263.10	2.861
263.46	2.895
263.82	3.127
264.19	3.309
264.55	3.383
264.91	3.516
265.28	3.954
265.64	3.868
266.00	3.652
266.37	3.799
266.73	4.233
267.09	4.265
267.46	4.180
267.82	4.151
268.18	4.269
268.54	4.298
268.91	4.295
269.27	4.103
269.63	4.120
270.00	4.239
270.36	4.224
270.72	3.812
271.08	3.456
271.45	3.359
271.81	3.405
272.17	3.354
272.53	3.154
272.90	2.809
273.26	2.761
273.62	2.750
273.98	2.800
274.35	2.560
274.71	2.811
275.07	3.108
275.43	3.147
275.80	3.070
276.16	3.295
276.52	3.219
276.88	3.419
277.25	3.143
277.61	3.204
277.97	3.018
278.33	2.914
278.69	2.594
279.06	2.722
279.42	2.452
279.78	2.331
280.14	2.221
280.50	2.506
280.87	2.551
281.23	2.796
281.59	2.811
281.95	2.688
282.31	2.760
282.68	2.984
283.04	2.895
283.40	3.019
283.76	2.834
284.12	2.927
284.48	2.987
284.85	3.016
285.21	2.899
285.57	2.877
285.93	3.092
286.29	3.316
286.65	3.395
287.02	3.386
287.38	3.632
287.74	3.923
288.10	3.721
288.46	3.571
288.82	3.402
289.18	3.283
289.54	3.149
289.91	3.255
290.27	2.937
290.63	2.879
290.99	2.848
291.35	2.734
291.71	2.829
292.07	2.991
292.43	3.300
292.79	3.572
293.16	3.697
293.52	3.857
293.88	3.930
294.24	4.280
294.60	4.205
294.96	4.250
295.32	4.269
295.68	4.063
296.04	4.033
296.40	3.872
296.76	3.899
297.12	3.969
297.49	4.171
297.85	4.141
298.21	4.125
298.57	4.230
298.93	4.207
299.29	4.218
299.65	4.316
300.01	4.448
300.37	4.368
300.73	4.541
301.09	4.761
301.45	4.634
301.81	4.756
302.17	4.757
302.53	4.764
302.89	4.863
303.25	4.723
303.61	4.910
303.97	4.757
304.33	4.907
304.69	4.670
305.05	4.546
305.41	4.538
305.77	4.530
306.13	4.550
306.49	4.655
306.85	4.599
307.21	4.773
307.57	4.659
307.93	4.776
308.29	4.904
308.65	5.004
309.01	5.010
309.37	5.067
309.73	5.050
310.09	5.100
310.45	5.028
310.81	5.125
311.17	5.051
311.53	5.111
311.89	5.165
312.25	5.009
312.61	5.007
312.96	5.077
313.32	5.141
313.68	4.956
314.04	4.892
314.40	5.006
314.76	4.991
315.12	5.132
315.48	5.340
315.84	5.133
316.20	5.243
316.56	5.336
316.92	5.384
317.27	5.259
317.63	5.322
317.99	5.445
318.35	5.268
318.71	5.151
319.07	5.136
319.43	5.050
319.79	5.163
320.15	5.065
320.50	4.775
320.86	4.667
321.22	4.723
321.58	4.770
321.94	4.609
322.30	4.787
322.66	4.882
323.01	4.870
323.37	4.751
323.73	4.682
324.09	4.705
324.45	4.920
324.81	4.916
325.17	4.854
325.52	4.907
325.88	4.920
326.24	4.881
326.60	4.983
326.96	4.994
327.31	4.977
327.67	5.031
328.03	4.958
328.39	4.809
328.75	4.849
329.11	4.874
329.46	4.807
329.82	4.757
330.18	4.695
330.54	4.601
330.90	4.591
331.25	4.578
331.61	4.536
331.97	4.592
332.33	4.598
332.68	4.446
333.04	4.376
333.40	4.387
333.76	4.465
334.11	4.407
334.47	4.397
334.83	4.263
335.19	4.286
335.54	4.429
335.90	4.435
336.26	4.531
336.62	4.690
336.97	4.672
337.33	4.656
337.69	4.531
338.05	4.546
338.40	4.483
338.76	4.596
339.12	4.502
339.48	4.438
339.83	4.383
340.19	4.331
340.55	4.181
340.90	4.190
341.26	4.093
341.62	4.134
341.97	4.170
342.33	4.282
342.69	4.172
343.04	4.206
343.40	4.095
343.76	4.076
344.12	4.092
344.47	4.143
344.83	4.109
345.19	4.174
345.54	4.220
345.90	4.216
346.26	4.086
346.61	4.138
346.97	4.090
347.32	4.137
347.68	4.101
348.04	4.029
348.39	3.988
348.75	4.115
349.11	4.045
349.46	3.976
349.82	3.938
350.18	4.038
350.53	3.988
350.89	4.002
351.24	3.956
351.60	3.985
351.96	3.998
352.31	4.035
352.67	3.864
353.02	3.921
353.38	3.876
353.74	3.856
354.09	3.749
354.45	3.776
354.80	3.743
355.16	3.707
355.52	3.678
355.87	3.634
356.23	3.541
356.58	3.606
356.94	3.555
357.29	3.551
357.65	3.550
358.00	3.557
358.36	3.483
358.72	3.564
359.07	3.653
359.43	3.672
359.78	3.692
360.14	3.695
360.49	3.669
360.85	3.679
361.20	3.741
361.56	3.724
361.91	3.650
362.27	3.695
362.62	3.611
362.98	3.507
363.33	3.468
363.69	3.406
364.04	3.401
364.40	3.379
364.75	3.377
365.11	3.320
365.46	3.329
365.82	3.416
366.17	3.358
366.53	3.426
366.88	3.464
367.24	3.498
367.59	3.549
367.95	3.572
368.30	3.610
368.66	3.584
369.01	3.609
369.37	3.603
369.72	3.554
370.08	3.603
370.43	3.526
370.78	3.497
371.14	3.454
371.49	3.423
371.85	3.432
372.20	3.405
372.56	3.440
372.91	3.393
373.26	3.364
373.62	3.362
373.97	3.380
374.33	3.428
374.68	3.419
375.03	3.448
375.39	3.423
375.74	3.441
376.10	3.426
376.45	3.409
376.80	3.403
377.16	3.407
377.51	3.377
377.87	3.300
378.22	3.295
378.57	3.325
378.93	3.304
379.28	3.345
379.63	3.324
379.99	3.329
380.34	3.292
380.70	3.289
381.05	3.341
381.40	3.373
381.76	3.408
382.11	3.392
382.46	3.329
382.82	3.350
383.17	3.362
383.52	3.348
383.88	3.308
384.23	3.337
384.58	3.313
384.94	3.261
385.29	3.277
385.64	3.290
385.99	3.285
386.35	3.349
386.70	3.343
387.05	3.312
387.41	3.296
387.76	3.324
388.11	3.271
388.47	3.295
388.82	3.244
389.17	3.208
389.52	3.186
389.88	3.172
390.23	3.162
390.58	3.154
390.93	3.134
391.29	3.145
391.64	3.134
391.99	3.118
392.34	3.109
392.70	3.120
393.05	3.112
393.40	3.104
393.75	3.086
394.11	3.051
394.46	3.008
394.81	2.986
395.16	2.919
395.52	2.911
395.87	2.887
396.22	2.851
396.57	2.819
396.92	2.782
397.28	2.781
397.63	2.751
397.98	2.752
398.33	2.733
398.68	2.745
399.04	2.766
399.39	2.749
399.74	2.772
400.09	2.760
400.44	2.780
400.80	2.801
401.15	2.753
401.50	2.756
401.85	2.753
402.20	2.760
402.55	2.758
402.90	2.744
403.26	2.736
403.61	2.723
403.96	2.730
404.31	2.720
404.66	2.724
405.01	2.766
405.36	2.796
405.72	2.782
406.07	2.796
406.42	2.786
406.77	2.779
407.12	2.772
407.47	2.789
407.82	2.784
408.17	2.780
408.53	2.773
408.88	2.774
409.23	2.737
409.58	2.739
409.93	2.717
410.28	2.727
410.63	2.714
410.98	2.739
411.33	2.701
411.68	2.688
412.03	2.709
412.38	2.686
412.73	2.660
413.09	2.667
413.44	2.677
413.79	2.697
414.14	2.678
414.49	2.709
414.84	2.702
415.19	2.751
415.54	2.782
415.89	2.778
416.24	2.794
416.59	2.808
416.94	2.817
417.29	2.824
417.64	2.822
417.99	2.843
418.34	2.844
418.69	2.829
419.04	2.816
419.39	2.822
419.74	2.822
420.09	2.831
420.44	2.835
420.79	2.833
421.14	2.813
421.49	2.812
421.84	2.815
422.19	2.816
422.54	2.847
422.89	2.845
423.24	2.846
423.59	2.846
423.94	2.833
424.29	2.816
424.64	2.803
424.99	2.820
425.34	2.818
425.68	2.803
426.03	2.809
426.38	2.779
426.73	2.793
427.08	2.755
427.43	2.765
427.78	2.765
428.13	2.769
428.48	2.782
428.83	2.759
429.18	2.758
429.53	2.742
429.87	2.724
430.22	2.720
430.57	2.722
430.92	2.726
431.27	2.693
431.62	2.666
431.97	2.644
432.32	2.621
432.67	2.612
433.01	2.599
433.36	2.619
433.71	2.616
434.06	2.614
434.41	2.597
434.76	2.614
435.11	2.599
435.45	2.620
435.80	2.632
436.15	2.641
436.50	2.671
436.85	2.686
437.20	2.677
437.54	2.669
437.89	2.659
438.24	2.650
438.59	2.628
438.94	2.640
439.29	2.637
439.63	2.628
439.98	2.633
440.33	2.620
440.68	2.610
441.03	2.614
441.37	2.631
441.72	2.645
442.07	2.672
442.42	2.685
442.76	2.693
443.11	2.700
443.46	2.713
443.81	2.711
444.16	2.713
444.50	2.707
444.85	2.701
445.20	2.696
445.55	2.689
445.89	2.659
446.24	2.641
446.59	2.637
446.94	2.618
447.28	2.614
447.63	2.600
447.98	2.575
448.32	2.569
448.67	2.547
449.02	2.512
449.37	2.486
449.71	2.502
450.06	2.492
450.41	2.495
450.75	2.500
451.10	2.460
451.45	2.466
451.79	2.450
452.14	2.442
452.49	2.432
452.84	2.436
453.18	2.427
453.53	2.407
453.88	2.417
454.22	2.412
454.57	2.412
454.92	2.441
455.26	2.448
455.61	2.484
455.95	2.503
456.30	2.526
456.65	2.533
456.99	2.550
457.34	2.566
457.69	2.584
458.03	2.576
458.38	2.583
458.73	2.575
459.07	2.559
459.42	2.549
459.76	2.531
460.11	2.500
460.46	2.492
460.80	2.491
461.15	2.471
461.49	2.415
461.84	2.403
462.19	2.379
462.53	2.372
462.88	2.364
463.22	2.360
463.57	2.369
463.91	2.401
464.26	2.403
464.61	2.399
464.95	2.392
465.30	2.413
465.64	2.421
465.99	2.414
466.33	2.407
466.68	2.418
467.02	2.424
467.37	2.413
467.71	2.387
468.06	2.377
468.41	2.376
468.75	2.372
469.10	2.356
469.44	2.331
469.79	2.319
470.13	2.328
470.48	2.298
470.82	2.265
471.17	2.245
471.51	2.245
471.86	2.219
472.20	2.202
472.55	2.219
472.89	2.216
473.23	2.218
473.58	2.220
473.92	2.215
474.27	2.236
474.61	2.237
474.96	2.237
475.30	2.220
475.65	2.233
475.99	2.238
476.34	2.213
476.68	2.220
477.02	2.221
477.37	2.220
477.71	2.227
478.06	2.235
478.40	2.283
478.75	2.339
479.09	2.402
479.43	2.469
479.78	2.531
480.12	2.600
480.47	2.662
480.81	2.738
481.15	2.811
481.50	2.882
481.84	2.956
482.19	3.018
482.53	3.078
482.87	3.111
483.22	3.106
483.56	3.081
483.90	3.034
484.25	2.980
484.59	2.915
484.94	2.860
485.28	2.803
485.62	2.733
485.97	2.663
486.31	2.591
486.65	2.542
487.00	2.528
487.34	2.520
487.68	2.525
488.03	2.537
488.37	2.547
488.71	2.544
489.06	2.529
489.40	2.515
489.74	2.493
490.09	2.478
490.43	2.465
490.77	2.443
491.11	2.428
491.46	2.412
491.80	2.393
492.14	2.357
492.49	2.331
492.83	2.296
493.17	2.264
493.51	2.242
493.86	2.212
494.20	2.183
494.54	2.146
494.88	2.132
495.23	2.130
495.57	2.119
495.91	2.128
496.25	2.111
496.60	2.110
496.94	2.101
497.28	2.097
497.62	2.095
497.97	2.088
498.31	2.092
498.65	2.063
498.99	2.052
499.33	2.037
499.68	2.025
500.02	2.009
500.36	1.997
500.70	1.982
501.04	1.980
501.39	1.959
501.73	1.952
502.07	1.946
502.41	1.955
502.75	1.945
503.09	1.951
503.44	1.959
503.78	1.972
504.12	1.985
504.46	2.010
504.80	2.016
505.14	2.031
505.49	2.028
505.83	2.047
506.17	2.060
506.51	2.066
506.85	2.070
507.19	2.067
507.53	2.071
507.87	2.071
508.22	2.074
508.56	2.056
508.90	2.056
509.24	2.061
509.58	2.057
509.92	2.058
510.26	2.046
510.60	2.046
510.94	2.030
511.28	2.027
511.63	2.028
511.97	2.015
512.31	2.012
512.65	2.003
512.99	2.004
513.33	1.997
513.67	1.995
514.01	2.025
514.35	2.045
514.69	2.079
515.03	2.097
515.37	2.107
515.71	2.111
516.05	2.125
516.39	2.135
516.73	2.147
517.07	2.157
517.41	2.165
517.75	2.149
518.09	2.139
518.43	2.117
518.77	2.098
519.11	2.085
519.45	2.076
519.79	2.064
520.13	2.052
520.47	2.032
520.81	2.025
521.15	2.017
521.49	2.029
521.83	2.025
522.17	2.056
522.51	2.094
522.85	2.115
523.19	2.156
523.53	2.211
523.87	2.262
524.21	2.318
524.55	2.372
524.89	2.423
525.23	2.461
525.57	2.501
525.91	2.520
526.25	2.537
526.58	2.561
526.92	2.581
527.26	2.591
527.60	2.594
527.94	2.588
528.28	2.573
528.62	2.550
528.96	2.522
529.30	2.504
529.64	2.483
529.97	2.462
530.31	2.439
530.65	2.408
530.99	2.384
531.33	2.365
531.67	2.357
532.01	2.350
532.35	2.349
532.68	2.347
533.02	2.327
533.36	2.312
533.70	2.295
534.04	2.270
534.38	2.256
534.71	2.236
535.05	2.223
535.39	2.202
535.73	2.192
536.07	2.171
536.41	2.183
536.74	2.196
537.08	2.227
537.42	2.256
537.76	2.290
538.10	2.317
538.43	2.339
538.77	2.362
539.11	2.376
539.45	2.393
539.79	2.413
540.12	2.415
540.46	2.426
540.80	2.413
541.14	2.394
541.47	2.375
541.81	2.355
542.15	2.340
542.49	2.312
542.82	2.287
543.16	2.266
543.50	2.235
543.84	2.211
544.17	2.173
544.51	2.154
544.85	2.138
545.18	2.127
545.52	2.102
545.86	2.079
546.20	2.061
546.53	2.038
546.87	1.983
547.21	1.950
547.54	1.916
547.88	1.908
548.22	1.874
548.55	1.857
548.89	1.845
549.23	1.854
549.56	1.829
549.90	1.852
550.24	1.867
550.57	1.877
550.91	1.874
551.25	1.878
551.58	1.874
551.92	1.877
552.26	1.867
552.59	1.840
552.93	1.818
553.27	1.833
553.60	1.773
553.94	1.759
554.27	1.764
554.61	1.773
554.95	1.784
555.28	1.773
555.62	1.770
555.95	1.775
556.29	1.779
556.63	1.778
556.96	1.779
557.30	1.796
557.63	1.789
557.97	1.789
558.31	1.801
558.64	1.795
558.98	1.806
559.31	1.820
559.65	1.828
559.98	1.827
560.32	1.830
560.65	1.821
560.99	1.842
561.33	1.857
561.66	1.862
562.00	1.855
562.33	1.846
562.67	1.852
563.00	1.875
563.34	1.876
563.67	1.888
564.01	1.899
564.34	1.902
564.68	1.908
565.01	1.902
565.35	1.896
565.68	1.902
566.02	1.925
566.35	1.926
566.69	1.931
567.02	1.943
567.36	1.964
567.69	1.967
568.03	1.992
568.36	1.991
568.69	2.004
569.03	2.022
569.36	2.034
569.70	2.026
570.03	2.031
570.37	2.020
570.70	2.029
571.04	2.018
571.37	2.012
571.70	2.016
572.04	2.027
572.37	2.022
572.71	2.012
573.04	2.021
573.37	2.029
573.71	2.016
574.04	2.021
574.38	1.992
574.71	1.989
575.04	1.987
575.38	1.964
575.71	1.939
576.05	1.943
576.38	1.930
576.71	1.884
577.05	1.860
577.38	1.853
577.71	1.840
578.05	1.820
578.38	1.807
578.71	1.802
579.05	1.795
579.38	1.801
579.71	1.758
580.05	1.755
580.38	1.765
580.71	1.750
581.05	1.730
581.38	1.715
581.71	1.716
582.05	1.696
582.38	1.716
582.71	1.714
583.04	1.677
583.38	1.695
583.71	1.704
584.04	1.709
584.38	1.714
584.71	1.749
585.04	1.751
585.37	1.786
585.71	1.817
586.04	1.799
586.37	1.799
586.70	1.839
587.04	1.836
587.37	1.831
587.70	1.828
588.03	1.843
588.37	1.829
588.70	1.821
589.03	1.818
589.36	1.809
589.69	1.803
590.03	1.784
590.36	1.760
590.69	1.782
591.02	1.783
591.35	1.760
591.69	1.744
592.02	1.761
592.35	1.766
592.68	1.756
593.01	1.763
593.35	1.785
593.68	1.813
594.01	1.818
594.34	1.804
594.67	1.784
595.00	1.801
595.34	1.785
595.67	1.750
596.00	1.741
596.33	1.723
596.66	1.681
596.99	1.650
597.32	1.614
597.65	1.607
597.99	1.589
598.32	1.583
598.65	1.545
598.98	1.543
599.31	1.530
599.64	1.528
599.97	1.538
600.30	1.538
600.63	1.554
600.96	1.558
601.30	1.569
601.63	1.597
601.96	1.603
602.29	1.630
602.62	1.640
602.95	1.653
603.28	1.648
603.61	1.632
603.94	1.638
604.27	1.619
604.60	1.623
604.93	1.602
605.26	1.583
605.59	1.561
605.92	1.549
606.25	1.524
606.58	1.518
606.91	1.495
607.24	1.518
607.57	1.505
607.90	1.514
608.23	1.487
608.56	1.485
608.89	1.440
609.22	1.414
609.55	1.370
609.88	1.346
610.21	1.304
610.54	1.281
610.87	1.208
611.20	1.172
611.53	1.104
611.86	1.075
612.19	1.022
612.52	0.998
612.85	0.994
613.18	1.001
613.51	0.976
613.84	0.959
614.17	0.982
614.49	1.009
614.82	1.004
615.15	0.999
615.48	0.972
615.81	0.973
616.14	0.994
616.47	0.985
616.80	0.979
617.13	0.976
617.46	0.983
617.78	0.938
618.11	0.908
618.44	0.906
618.77	0.891
619.10	0.917
619.43	0.916
619.76	0.878
620.09	0.871
620.41	0.867
620.74	0.898
621.07	0.888
621.40	0.882
621.73	0.916
622.06	0.914
622.38	0.941
622.71	0.931
623.04	0.940
623.37	0.987
623.70	1.021
624.02	1.013
624.35	1.034
624.68	1.059
625.01	1.112
625.34	1.083
625.66	1.115
625.99	1.133
626.32	1.157
626.65	1.134
626.98	1.100
627.30	1.073
627.63	1.096
627.96	1.068
628.29	1.038
628.61	0.990
628.94	0.988
629.27	0.921
629.60	0.902
629.92	0.863
630.25	0.895
630.58	0.876
630.91	0.874
631.23	0.850
631.56	0.835
631.89	0.867
632.21	0.872
632.54	0.872
632.87	0.896
633.19	0.877
633.52	0.865
633.85	0.820
634.18	0.795
634.50	0.776
634.83	0.753
635.16	0.742
635.48	0.693
635.81	0.654
636.14	0.628
636.46	0.606
636.79	0.600
637.11	0.594
637.44	0.634
637.77	0.629
638.09	0.608
638.42	0.585
638.75	0.585
639.07	0.580
639.40	0.564
639.73	0.568
640.05	0.559
640.38	0.543
640.70	0.558
641.03	0.511
641.36	0.545
641.68	0.577
642.01	0.587
642.33	0.577
642.66	0.575
642.98	0.583
643.31	0.542
643.64	0.566
643.96	0.555
644.29	0.521
644.61	0.513
644.94	0.509
645.26	0.475
645.59	0.470
645.91	0.485
646.24	0.507
646.56	0.533
646.89	0.582
647.22	0.623
647.54	0.628
647.87	0.639
648.19	0.663
648.52	0.694
648.84	0.735
649.17	0.745
649.49	0.747
649.82	0.727
650.14	0.743
650.47	0.750
650.79	0.722
651.11	0.722
651.44	0.741
651.76	0.729
652.09	0.697
652.41	0.678
652.74	0.654
653.06	0.633
653.39	0.665
653.71	0.692
654.04	0.678
654.36	0.691
654.68	0.700
655.01	0.714
655.33	0.727
655.66	0.716
655.98	0.714
656.30	0.760
656.63	0.792
656.95	0.798
657.28	0.767
657.60	0.727
657.92	0.704
658.25	0.686
658.57	0.641
658.90	0.589
659.22	0.570
659.54	0.603
659.87	0.545
