OOIBase32 Version 2.0.0.6 Data File
++++++++++++++++++++++++++++++++++++
Date: 01-23-2012, 21:39:34
User: Valued Ocean Optics Customer
Spectrometer Serial Number: USB2E2917
Spectrometer Channel: Master
Integration Time (msec): 5
Spectra Averaged: 10
Boxcar Smoothing: 5
Correct for Electrical Dark: Enabled
Time Normalized: Disabled
Dual-beam Reference: Disabled
Reference Channel: Master
Temperature: Not acquired
Spectrometer Type: S2000
ADC Type: USB2000
Number of Pixels in File: 2048
Graph Title: 
>>>>>Begin Spectral Data<<<<<
180.30	0.000
180.67	0.000
181.03	52.017
181.40	-302.720
181.77	9103.733
182.14	169.726
182.51	97.208
182.88	3073.941
183.25	124.124
183.62	-80.698
183.99	39.871
184.36	300.088
184.73	230.758
185.10	40.336
185.46	125.194
185.83	-7.026
186.20	143.138
186.57	-399.787
186.94	6.546
187.31	83.082
187.68	-336.061
188.05	31.357
188.42	47.283
188.78	30.323
189.15	10.135
189.52	4.592
189.89	-7.876
190.26	-33.311
190.63	-26.532
191.00	-29.237
191.37	-7.763
191.73	0.222
192.10	0.998
192.47	2.767
192.84	6.140
193.21	7.348
193.58	5.548
193.94	5.548
194.31	3.588
194.68	2.534
195.05	-2.322
195.42	-25.235
195.79	-28.102
196.15	-27.115
196.52	-25.447
196.89	-29.636
197.26	-28.740
197.63	-27.575
198.00	-24.686
198.36	-18.407
198.73	-13.930
199.10	-11.219
199.47	-6.114
199.84	-10.587
200.20	5.023
200.57	-6.204
200.94	-14.566
201.31	-5.062
201.68	4.217
202.04	-0.411
202.41	7.842
202.78	1.647
203.15	1.698
203.51	-10.985
203.88	-10.004
204.25	-26.812
204.62	-12.983
204.98	-3.026
205.35	5.732
205.72	8.617
206.09	11.579
206.46	16.571
206.82	22.939
207.19	24.110
207.56	30.965
207.92	24.364
208.29	23.280
208.66	16.333
209.03	16.603
209.39	11.613
209.76	14.282
210.13	12.130
210.50	13.205
210.86	5.981
211.23	20.343
211.60	18.857
211.96	17.878
212.33	8.177
212.70	21.056
213.07	20.298
213.43	17.860
213.80	8.467
214.17	2.573
214.53	0.158
214.90	8.671
215.27	-3.041
215.63	-16.343
216.00	-21.135
216.37	-2.481
216.74	-17.452
217.10	-22.033
217.47	-28.611
217.84	-17.368
218.20	0.188
218.57	9.563
218.94	-2.338
219.30	-0.778
219.67	10.361
220.04	18.531
220.40	6.512
220.77	7.018
221.13	6.720
221.50	4.653
221.87	-6.491
222.23	-6.969
222.60	-16.856
222.97	-16.429
223.33	-15.442
223.70	-11.915
224.07	-6.402
224.43	-1.565
224.80	2.650
225.16	4.058
225.53	5.917
225.90	4.182
226.26	0.395
226.63	-1.860
226.99	-0.175
227.36	1.492
227.73	1.219
228.09	-1.859
228.46	-2.475
228.82	-4.061
229.19	-5.697
229.56	-8.437
229.92	-5.983
230.29	-2.436
230.65	0.456
231.02	0.998
231.38	-2.949
231.75	-3.393
232.12	-1.455
232.48	-1.216
232.85	-0.502
233.21	2.325
233.58	4.188
233.94	5.734
234.31	2.928
234.68	1.713
235.04	1.884
235.41	4.092
235.77	3.418
236.14	2.021
236.50	0.291
236.87	0.521
237.23	-0.562
237.60	-0.236
237.96	-1.476
238.33	1.028
238.69	1.687
239.06	0.957
239.42	0.447
239.79	0.703
240.15	1.479
240.52	2.355
240.88	1.998
241.25	2.152
241.61	2.221
241.98	2.834
242.34	2.126
242.71	2.545
243.07	2.935
243.44	3.537
243.80	3.519
244.17	3.463
244.53	3.349
244.90	3.347
245.26	3.524
245.63	3.626
245.99	3.598
246.36	3.842
246.72	3.188
247.09	2.972
247.45	2.891
247.81	2.730
248.18	2.548
248.54	2.707
248.91	2.640
249.27	2.453
249.64	2.591
250.00	2.555
250.36	2.380
250.73	3.024
251.09	3.416
251.46	3.472
251.82	3.882
252.19	4.446
252.55	4.124
252.91	4.575
253.28	4.228
253.64	3.877
254.01	3.636
254.37	3.221
254.73	3.339
255.10	3.141
255.46	2.745
255.83	2.481
256.19	2.581
256.55	2.506
256.92	2.234
257.28	2.408
257.65	2.518
258.01	2.831
258.37	2.877
258.74	2.764
259.10	2.848
259.46	2.845
259.83	2.985
260.19	2.840
260.55	2.913
260.92	3.061
261.28	3.080
261.64	2.952
262.01	2.540
262.37	2.431
262.73	2.235
263.10	2.127
263.46	2.331
263.82	2.099
264.19	1.865
264.55	2.070
264.91	2.029
265.28	2.253
265.64	2.135
266.00	2.074
266.37	2.123
266.73	2.593
267.09	2.636
267.46	2.912
267.82	2.879
268.18	3.017
268.54	2.813
268.91	2.926
269.27	2.621
269.63	2.686
270.00	2.563
270.36	2.654
270.72	2.600
271.08	2.357
271.45	2.069
271.81	2.289
272.17	2.282
272.53	2.266
272.90	2.113
273.26	2.254
273.62	2.096
273.98	2.314
274.35	1.951
274.71	1.848
275.07	1.991
275.43	2.086
275.80	1.989
276.16	2.152
276.52	2.202
276.88	2.131
277.25	1.973
277.61	2.096
277.97	2.006
278.33	2.029
278.69	1.824
279.06	1.958
279.42	1.583
279.78	1.370
280.14	1.314
280.50	1.429
280.87	1.536
281.23	1.752
281.59	1.533
281.95	1.448
282.31	1.744
282.68	2.037
283.04	1.977
283.40	2.077
283.76	2.112
284.12	2.017
284.48	2.063
284.85	2.099
285.21	1.932
285.57	2.094
285.93	2.251
286.29	2.176
286.65	2.025
287.02	2.130
287.38	2.430
287.74	2.551
288.10	2.575
288.46	2.369
288.82	2.226
289.18	2.353
289.54	2.372
289.91	2.381
290.27	2.303
290.63	2.416
290.99	2.223
291.35	2.182
291.71	2.514
292.07	2.387
292.43	2.513
292.79	2.843
293.16	2.766
293.52	2.844
293.88	2.921
294.24	2.947
294.60	2.859
294.96	2.889
295.32	2.859
295.68	2.553
296.04	2.802
296.40	2.836
296.76	2.774
297.12	2.898
297.49	3.050
297.85	3.124
298.21	3.319
298.57	3.330
298.93	3.416
299.29	3.470
299.65	3.568
300.01	3.655
300.37	3.576
300.73	3.926
301.09	4.249
301.45	4.434
301.81	4.598
302.17	4.593
302.53	4.899
302.89	5.165
303.25	5.295
303.61	5.713
303.97	5.859
304.33	6.193
304.69	6.019
305.05	5.979
305.41	5.994
305.77	6.207
306.13	6.488
306.49	6.687
306.85	6.881
307.21	7.169
307.57	7.188
307.93	7.256
308.29	7.449
308.65	7.591
309.01	7.716
309.37	7.973
309.73	8.013
310.09	8.133
310.45	8.207
310.81	8.368
311.17	8.385
311.53	8.578
311.89	8.753
312.25	8.764
312.61	9.007
312.96	9.077
313.32	9.073
313.68	9.113
314.04	9.037
314.40	9.126
314.76	9.132
315.12	9.238
315.48	9.280
315.84	9.272
316.20	9.397
316.56	9.295
316.92	9.409
317.27	9.403
317.63	9.425
317.99	9.519
318.35	9.430
318.71	9.285
319.07	9.170
319.43	9.115
319.79	9.125
320.15	9.059
320.50	9.042
320.86	9.006
321.22	9.170
321.58	9.169
321.94	9.090
322.30	9.077
322.66	9.248
323.01	9.338
323.37	9.300
323.73	9.320
324.09	9.371
324.45	9.385
324.81	9.317
325.17	9.162
325.52	9.218
325.88	9.216
326.24	9.164
326.60	9.162
326.96	9.192
327.31	9.148
327.67	9.070
328.03	8.961
328.39	8.875
328.75	8.856
329.11	8.867
329.46	8.727
329.82	8.771
330.18	8.906
330.54	8.767
330.90	8.630
331.25	8.650
331.61	8.621
331.97	8.641
332.33	8.784
332.68	8.655
333.04	8.578
333.40	8.635
333.76	8.631
334.11	8.510
334.47	8.500
334.83	8.452
335.19	8.431
335.54	8.485
335.90	8.471
336.26	8.327
336.62	8.385
336.97	8.369
337.33	8.253
337.69	8.088
338.05	8.077
338.40	8.085
338.76	8.141
339.12	8.020
339.48	7.973
339.83	7.854
340.19	7.867
340.55	7.880
340.90	7.805
341.26	7.776
341.62	7.873
341.97	7.891
342.33	7.931
342.69	7.874
343.04	7.882
343.40	7.795
343.76	7.862
344.12	7.865
344.47	7.804
344.83	7.744
345.19	7.722
345.54	7.738
345.90	7.730
346.26	7.651
346.61	7.696
346.97	7.670
347.32	7.690
347.68	7.591
348.04	7.563
348.39	7.561
348.75	7.655
349.11	7.530
349.46	7.462
349.82	7.396
350.18	7.326
350.53	7.192
350.89	7.205
351.24	7.158
351.60	7.183
351.96	7.094
352.31	7.084
352.67	6.996
353.02	7.139
353.38	7.111
353.74	7.070
354.09	7.029
354.45	7.064
354.80	7.016
355.16	7.043
355.52	7.004
355.87	6.965
356.23	6.916
356.58	6.995
356.94	6.936
357.29	6.872
357.65	6.812
358.00	6.821
358.36	6.775
358.72	6.758
359.07	6.683
359.43	6.699
359.78	6.760
360.14	6.660
360.49	6.598
360.85	6.527
361.20	6.549
361.56	6.546
361.91	6.476
362.27	6.412
362.62	6.365
362.98	6.381
363.33	6.304
363.69	6.192
364.04	6.175
364.40	6.105
364.75	6.105
365.11	6.080
365.46	6.074
365.82	6.091
366.17	6.107
366.53	6.151
366.88	6.046
367.24	6.065
367.59	6.114
367.95	6.168
368.30	6.145
368.66	6.119
369.01	6.103
369.37	6.071
369.72	6.032
370.08	6.043
370.43	5.971
370.78	6.015
371.14	5.944
371.49	5.927
371.85	5.927
372.20	5.925
372.56	5.951
372.91	5.899
373.26	5.881
373.62	5.811
373.97	5.815
374.33	5.776
374.68	5.726
375.03	5.772
375.39	5.653
375.74	5.581
376.10	5.513
376.45	5.411
376.80	5.389
377.16	5.386
377.51	5.383
377.87	5.294
378.22	5.289
378.57	5.278
378.93	5.198
379.28	5.287
379.63	5.281
379.99	5.317
380.34	5.346
380.70	5.322
381.05	5.280
381.40	5.277
381.76	5.273
382.11	5.255
382.46	5.169
382.82	5.138
383.17	5.107
383.52	5.068
383.88	4.996
384.23	4.962
384.58	4.914
384.94	4.845
385.29	4.838
385.64	4.805
385.99	4.777
386.35	4.853
386.70	4.864
387.05	4.766
387.41	4.756
387.76	4.754
388.11	4.692
388.47	4.705
388.82	4.668
389.17	4.621
389.52	4.571
389.88	4.556
390.23	4.515
390.58	4.429
390.93	4.422
391.29	4.397
391.64	4.371
391.99	4.356
392.34	4.322
392.70	4.298
393.05	4.273
393.40	4.263
393.75	4.215
394.11	4.143
394.46	4.141
394.81	4.095
395.16	3.991
395.52	3.934
395.87	3.889
396.22	3.802
396.57	3.787
396.92	3.743
397.28	3.698
397.63	3.660
397.98	3.650
398.33	3.632
398.68	3.624
399.04	3.621
399.39	3.575
399.74	3.559
400.09	3.553
400.44	3.505
400.80	3.476
401.15	3.432
401.50	3.411
401.85	3.391
402.20	3.361
402.55	3.333
402.90	3.326
403.26	3.333
403.61	3.311
403.96	3.293
404.31	3.290
404.66	3.265
405.01	3.259
405.36	3.249
405.72	3.212
406.07	3.198
406.42	3.183
406.77	3.158
407.12	3.096
407.47	3.098
407.82	3.054
408.17	3.024
408.53	3.016
408.88	3.015
409.23	2.978
409.58	2.981
409.93	2.934
410.28	2.921
410.63	2.913
410.98	2.939
411.33	2.882
411.68	2.905
412.03	2.920
412.38	2.913
412.73	2.888
413.09	2.884
413.44	2.865
413.79	2.884
414.14	2.852
414.49	2.833
414.84	2.809
415.19	2.817
415.54	2.832
415.89	2.812
416.24	2.799
416.59	2.798
416.94	2.799
417.29	2.797
417.64	2.784
417.99	2.793
418.34	2.791
418.69	2.791
419.04	2.802
419.39	2.798
419.74	2.800
420.09	2.804
420.44	2.799
420.79	2.796
421.14	2.773
421.49	2.768
421.84	2.763
422.19	2.763
422.54	2.770
422.89	2.746
423.24	2.727
423.59	2.719
423.94	2.710
424.29	2.693
424.64	2.667
424.99	2.684
425.34	2.687
425.68	2.682
426.03	2.682
426.38	2.646
426.73	2.651
427.08	2.634
427.43	2.628
427.78	2.643
428.13	2.664
428.48	2.681
428.83	2.666
429.18	2.653
429.53	2.651
429.87	2.639
430.22	2.649
430.57	2.648
430.92	2.625
431.27	2.629
431.62	2.588
431.97	2.561
432.32	2.551
432.67	2.543
433.01	2.533
433.36	2.524
433.71	2.529
434.06	2.531
434.41	2.549
434.76	2.593
435.11	2.584
435.45	2.606
435.80	2.631
436.15	2.640
436.50	2.639
436.85	2.646
437.20	2.646
437.54	2.650
437.89	2.647
438.24	2.634
438.59	2.613
438.94	2.621
439.29	2.616
439.63	2.607
439.98	2.616
440.33	2.627
440.68	2.631
441.03	2.641
441.37	2.641
441.72	2.651
442.07	2.680
442.42	2.705
442.76	2.708
443.11	2.729
443.46	2.738
443.81	2.737
444.16	2.734
444.50	2.738
444.85	2.742
445.20	2.731
445.55	2.734
445.89	2.708
446.24	2.683
446.59	2.674
446.94	2.659
447.28	2.646
447.63	2.629
447.98	2.631
448.32	2.628
448.67	2.621
449.02	2.622
449.37	2.620
449.71	2.634
450.06	2.625
450.41	2.633
450.75	2.634
451.10	2.635
451.45	2.651
451.79	2.639
452.14	2.636
452.49	2.630
452.84	2.626
453.18	2.593
453.53	2.578
453.88	2.592
454.22	2.599
454.57	2.605
454.92	2.632
455.26	2.640
455.61	2.649
455.95	2.669
456.30	2.692
456.65	2.701
456.99	2.729
457.34	2.738
457.69	2.766
458.03	2.759
458.38	2.763
458.73	2.743
459.07	2.745
459.42	2.757
459.76	2.743
460.11	2.723
460.46	2.727
460.80	2.719
461.15	2.716
461.49	2.689
461.84	2.703
462.19	2.687
462.53	2.703
462.88	2.690
463.22	2.685
463.57	2.704
463.91	2.751
464.26	2.758
464.61	2.767
464.95	2.784
465.30	2.811
465.64	2.822
465.99	2.848
466.33	2.866
466.68	2.889
467.02	2.898
467.37	2.905
467.71	2.877
468.06	2.895
468.41	2.907
468.75	2.914
469.10	2.890
469.44	2.886
469.79	2.878
470.13	2.881
470.48	2.848
470.82	2.851
471.17	2.842
471.51	2.828
471.86	2.808
472.20	2.778
472.55	2.772
472.89	2.785
473.23	2.771
473.58	2.757
473.92	2.739
474.27	2.750
474.61	2.737
474.96	2.724
475.30	2.718
475.65	2.720
475.99	2.733
476.34	2.731
476.68	2.719
477.02	2.728
477.37	2.736
477.71	2.726
478.06	2.736
478.40	2.773
478.75	2.822
479.09	2.890
479.43	2.947
479.78	3.006
480.12	3.064
480.47	3.133
480.81	3.197
481.15	3.267
481.50	3.342
481.84	3.418
482.19	3.489
482.53	3.546
482.87	3.567
483.22	3.557
483.56	3.515
483.90	3.455
484.25	3.381
484.59	3.306
484.94	3.242
485.28	3.182
485.62	3.105
485.97	3.022
486.31	2.942
486.65	2.896
487.00	2.881
487.34	2.908
487.68	2.928
488.03	2.957
488.37	2.980
488.71	2.989
489.06	2.986
489.40	2.983
489.74	2.972
490.09	2.970
490.43	2.967
490.77	2.950
491.11	2.920
491.46	2.911
491.80	2.902
492.14	2.883
492.49	2.868
492.83	2.852
493.17	2.827
493.51	2.838
493.86	2.840
494.20	2.831
494.54	2.841
494.88	2.848
495.23	2.875
495.57	2.898
495.91	2.937
496.25	2.943
496.60	2.960
496.94	2.985
497.28	2.979
497.62	2.998
497.97	3.019
498.31	3.040
498.65	3.062
498.99	3.071
499.33	3.081
499.68	3.102
500.02	3.128
500.36	3.159
500.70	3.189
501.04	3.234
501.39	3.268
501.73	3.315
502.07	3.354
502.41	3.391
502.75	3.436
503.09	3.481
503.44	3.524
503.78	3.594
504.12	3.627
504.46	3.695
504.80	3.752
505.14	3.801
505.49	3.835
505.83	3.897
506.17	3.954
506.51	4.004
506.85	4.041
507.19	4.089
507.53	4.112
507.87	4.169
508.22	4.212
508.56	4.250
508.90	4.282
509.24	4.335
509.58	4.375
509.92	4.422
510.26	4.455
510.60	4.505
510.94	4.540
511.28	4.581
511.63	4.636
511.97	4.670
512.31	4.714
512.65	4.767
512.99	4.809
513.33	4.848
513.67	4.895
514.01	4.962
514.35	5.029
514.69	5.096
515.03	5.168
515.37	5.205
515.71	5.258
516.05	5.292
516.39	5.331
516.73	5.366
517.07	5.398
517.41	5.430
517.75	5.447
518.09	5.451
518.43	5.455
518.77	5.452
519.11	5.469
519.45	5.478
519.79	5.500
520.13	5.508
520.47	5.521
520.81	5.547
521.15	5.551
521.49	5.580
521.83	5.608
522.17	5.649
522.51	5.682
522.85	5.724
523.19	5.778
523.53	5.854
523.87	5.917
524.21	5.989
524.55	6.042
524.89	6.111
525.23	6.161
525.57	6.211
525.91	6.253
526.25	6.294
526.58	6.328
526.92	6.348
527.26	6.357
527.60	6.358
527.94	6.351
528.28	6.343
528.62	6.309
528.96	6.293
529.30	6.267
529.64	6.235
529.97	6.205
530.31	6.171
530.65	6.129
530.99	6.094
531.33	6.073
531.67	6.059
532.01	6.043
532.35	6.044
532.68	6.003
533.02	5.965
533.36	5.937
533.70	5.910
534.04	5.865
534.38	5.845
534.71	5.813
535.05	5.792
535.39	5.744
535.73	5.729
536.07	5.698
536.41	5.713
536.74	5.724
537.08	5.736
537.42	5.731
537.76	5.765
538.10	5.779
538.43	5.801
538.77	5.799
539.11	5.820
539.45	5.818
539.79	5.834
540.12	5.833
540.46	5.831
540.80	5.808
541.14	5.783
541.47	5.743
541.81	5.713
542.15	5.679
542.49	5.647
542.82	5.593
543.16	5.555
543.50	5.502
543.84	5.445
544.17	5.400
544.51	5.368
544.85	5.358
545.18	5.337
545.52	5.303
545.86	5.267
546.20	5.238
546.53	5.222
546.87	5.174
547.21	5.120
547.54	5.089
547.88	5.072
548.22	5.048
548.55	5.018
548.89	4.998
549.23	4.987
549.56	4.972
549.90	4.974
550.24	4.974
550.57	4.998
550.91	5.006
551.25	5.007
551.58	5.001
551.92	5.005
552.26	5.002
552.59	4.990
552.93	4.982
553.27	4.974
553.60	4.960
553.94	4.956
554.27	4.932
554.61	4.957
554.95	4.972
555.28	4.978
555.62	4.990
555.95	5.011
556.29	5.010
556.63	5.020
556.96	5.012
557.30	5.025
557.63	4.998
557.97	4.997
558.31	5.009
558.64	4.994
558.98	4.999
559.31	5.006
559.65	4.999
559.98	5.013
560.32	5.021
560.65	5.037
560.99	5.048
561.33	5.099
561.66	5.115
562.00	5.112
562.33	5.129
562.67	5.146
563.00	5.160
563.34	5.188
563.67	5.195
564.01	5.208
564.34	5.224
564.68	5.243
565.01	5.253
565.35	5.270
565.68	5.290
566.02	5.318
566.35	5.335
566.69	5.344
567.02	5.359
567.36	5.391
567.69	5.402
568.03	5.421
568.36	5.430
568.69	5.428
569.03	5.451
569.36	5.465
569.70	5.467
570.03	5.475
570.37	5.488
570.70	5.511
571.04	5.523
571.37	5.522
571.70	5.526
572.04	5.528
572.37	5.546
572.71	5.551
573.04	5.562
573.37	5.589
573.71	5.595
574.04	5.611
574.38	5.599
574.71	5.603
575.04	5.620
575.38	5.628
575.71	5.637
576.05	5.636
576.38	5.644
576.71	5.618
577.05	5.611
577.38	5.626
577.71	5.621
578.05	5.601
578.38	5.608
578.71	5.618
579.05	5.635
579.38	5.661
579.71	5.640
580.05	5.639
580.38	5.670
580.71	5.663
581.05	5.658
581.38	5.655
581.71	5.679
582.05	5.673
582.38	5.678
582.71	5.682
583.04	5.660
583.38	5.707
583.71	5.720
584.04	5.733
584.38	5.759
584.71	5.774
585.04	5.799
585.37	5.842
585.71	5.867
586.04	5.902
586.37	5.927
586.70	5.957
587.04	5.948
587.37	5.979
587.70	5.979
588.03	6.017
588.37	6.037
588.70	6.054
589.03	6.053
589.36	6.053
589.69	6.025
590.03	6.031
590.36	6.050
590.69	6.107
591.02	6.118
591.35	6.156
591.69	6.152
592.02	6.186
592.35	6.177
592.68	6.203
593.01	6.240
593.35	6.312
593.68	6.338
594.01	6.337
594.34	6.358
594.67	6.383
595.00	6.382
595.34	6.380
595.67	6.356
596.00	6.404
596.33	6.396
596.66	6.392
596.99	6.394
597.32	6.389
597.65	6.431
597.99	6.423
598.32	6.401
598.65	6.434
598.98	6.469
599.31	6.520
599.64	6.539
599.97	6.562
600.30	6.567
600.63	6.579
600.96	6.610
601.30	6.632
601.63	6.667
601.96	6.698
602.29	6.710
602.62	6.739
602.95	6.758
603.28	6.749
603.61	6.769
603.94	6.807
604.27	6.811
604.60	6.812
604.93	6.810
605.26	6.807
605.59	6.821
605.92	6.834
606.25	6.814
606.58	6.828
606.91	6.833
607.24	6.857
607.57	6.859
607.90	6.889
608.23	6.885
608.56	6.881
608.89	6.881
609.22	6.865
609.55	6.837
609.88	6.834
610.21	6.795
610.54	6.793
610.87	6.759
611.20	6.763
611.53	6.736
611.86	6.720
612.19	6.701
612.52	6.670
612.85	6.666
613.18	6.691
613.51	6.657
613.84	6.681
614.17	6.668
614.49	6.666
614.82	6.638
615.15	6.610
615.48	6.619
615.81	6.639
616.14	6.653
616.47	6.669
616.80	6.639
617.13	6.675
617.46	6.673
617.78	6.667
618.11	6.660
618.44	6.673
618.77	6.688
619.10	6.676
619.43	6.651
619.76	6.633
620.09	6.602
620.41	6.621
620.74	6.634
621.07	6.635
621.40	6.628
621.73	6.651
622.06	6.643
622.38	6.629
622.71	6.638
623.04	6.641
623.37	6.679
623.70	6.707
624.02	6.708
624.35	6.714
624.68	6.712
625.01	6.782
625.34	6.784
625.66	6.809
625.99	6.808
626.32	6.830
626.65	6.847
626.98	6.845
627.30	6.834
627.63	6.831
627.96	6.807
628.29	6.751
628.61	6.695
628.94	6.687
629.27	6.650
629.60	6.676
629.92	6.654
630.25	6.675
630.58	6.625
630.91	6.618
631.23	6.620
631.56	6.608
631.89	6.639
632.21	6.653
632.54	6.609
632.87	6.622
633.19	6.610
633.52	6.600
633.85	6.552
634.18	6.576
634.50	6.552
634.83	6.547
635.16	6.522
635.48	6.513
635.81	6.473
636.14	6.479
636.46	6.437
636.79	6.413
637.11	6.400
637.44	6.396
637.77	6.358
638.09	6.318
638.42	6.266
638.75	6.264
639.07	6.260
639.40	6.250
639.73	6.273
640.05	6.308
640.38	6.270
640.70	6.301
641.03	6.308
641.36	6.315
641.68	6.338
642.01	6.318
642.33	6.354
642.66	6.353
642.98	6.346
643.31	6.326
643.64	6.284
643.96	6.308
644.29	6.272
644.61	6.240
644.94	6.238
645.26	6.263
645.59	6.284
645.91	6.239
646.24	6.235
646.56	6.241
646.89	6.207
647.22	6.235
647.54	6.207
647.87	6.206
648.19	6.204
648.52	6.222
648.84	6.207
649.17	6.225
649.49	6.226
649.82	6.187
650.14	6.191
650.47	6.200
650.79	6.178
651.11	6.162
651.44	6.116
651.76	6.103
652.09	6.062
652.41	6.057
652.74	6.013
653.06	6.016
653.39	6.070
653.71	6.083
654.04	6.109
654.36	6.105
654.68	6.110
655.01	6.186
655.33	6.208
655.66	6.262
655.98	6.225
656.30	6.263
656.63	6.290
656.95	6.263
657.28	6.254
657.60	6.227
657.92	6.218
658.25	6.236
658.57	6.175
658.90	6.152
659.22	6.085
659.54	6.128
659.87	6.052
