OOIBase32 Version 2.0.0.6 Data File
++++++++++++++++++++++++++++++++++++
Date: 01-22-2012, 21:30:14
User: Valued Ocean Optics Customer
Spectrometer Serial Number: USB2E2917
Spectrometer Channel: Master
Integration Time (msec): 4
Spectra Averaged: 10
Boxcar Smoothing: 5
Correct for Electrical Dark: Enabled
Time Normalized: Disabled
Dual-beam Reference: Disabled
Reference Channel: Master
Temperature: Not acquired
Spectrometer Type: S2000
ADC Type: USB2000
Number of Pixels in File: 2048
Graph Title: 
>>>>>Begin Spectral Data<<<<<
180.30	0.000
180.67	0.000
181.03	-19.973
181.40	66.384
181.77	-23.501
182.14	-122.357
182.51	40.312
182.88	137.234
183.25	59.006
183.62	141.690
183.99	23.750
184.36	107.497
184.73	-118.132
185.10	1386.613
185.46	143.091
185.83	-58.867
186.20	67.513
186.57	428.379
186.94	57.784
187.31	-43.280
187.68	-1082.801
188.05	261.231
188.42	90.161
188.78	260.708
189.15	120.928
189.52	94.946
189.89	76.490
190.26	85.939
190.63	111.878
191.00	138.500
191.37	127.075
191.73	199.197
192.10	184.665
192.47	62.709
192.84	-147.455
193.21	-206.564
193.58	-218.808
193.94	-169.458
194.31	-39.597
194.68	-33.295
195.05	-44.730
195.42	-43.806
195.79	-50.464
196.15	-37.529
196.52	21.663
196.89	33.057
197.26	10.763
197.63	17.248
198.00	41.056
198.36	11.764
198.73	52.147
199.10	85.487
199.47	60.182
199.84	38.833
200.20	34.656
200.57	10.646
200.94	40.480
201.31	49.165
201.68	45.381
202.04	38.761
202.41	34.228
202.78	40.337
203.15	33.809
203.51	32.622
203.88	37.848
204.25	33.851
204.62	38.331
204.98	24.476
205.35	13.416
205.72	-10.507
206.09	-70.769
206.46	-64.245
206.82	-97.362
207.19	-104.550
207.56	-121.304
207.92	-129.914
208.29	-78.923
208.66	-58.948
209.03	-51.157
209.39	-32.574
209.76	-11.699
210.13	19.879
210.50	38.346
210.86	27.354
211.23	16.672
211.60	-16.094
211.96	-44.898
212.33	-157.761
212.70	7684.391
213.07	667.644
213.43	455.247
213.80	1339.594
214.17	274.690
214.53	1284.102
214.90	-137.420
215.27	-35.485
215.63	-16.430
216.00	40.075
216.37	53.516
216.74	61.863
217.10	50.656
217.47	44.209
217.84	42.063
218.20	34.037
218.57	28.832
218.94	12.357
219.30	8.326
219.67	4.059
220.04	6.396
220.40	7.239
220.77	7.469
221.13	12.734
221.50	20.839
221.87	21.031
222.23	19.021
222.60	10.749
222.97	18.411
223.33	14.707
223.70	9.031
224.07	1.626
224.43	-0.551
224.80	1.903
225.16	-1.295
225.53	-4.977
225.90	-7.277
226.26	-4.736
226.63	-1.904
226.99	-2.129
227.36	-0.019
227.73	2.539
228.09	2.997
228.46	4.580
228.82	3.019
229.19	6.007
229.56	5.006
229.92	5.712
230.29	5.989
230.65	6.154
231.02	4.367
231.38	2.665
231.75	0.784
232.12	1.060
232.48	-1.175
232.85	0.774
233.21	-1.709
233.58	1.668
233.94	2.934
234.31	2.361
234.68	0.679
235.04	2.543
235.41	2.656
235.77	3.077
236.14	3.683
236.50	5.620
236.87	5.303
237.23	4.391
237.60	1.197
237.96	-0.557
238.33	-1.391
238.69	-0.419
239.06	-0.925
239.42	-0.924
239.79	-0.485
240.15	-0.227
240.52	-0.084
240.88	-0.684
241.25	0.132
241.61	0.344
241.98	1.312
242.34	1.794
242.71	2.228
243.07	2.388
243.44	3.001
243.80	3.131
244.17	2.617
244.53	2.053
244.90	2.467
245.26	2.514
245.63	2.912
245.99	3.118
246.36	2.932
246.72	2.558
247.09	2.580
247.45	2.416
247.81	2.569
248.18	2.905
248.54	3.380
248.91	3.235
249.27	2.637
249.64	2.423
250.00	2.144
250.36	2.715
250.73	2.655
251.09	1.600
251.46	1.136
251.82	0.781
252.19	0.638
252.55	0.311
252.91	0.146
253.28	0.445
253.64	1.023
254.01	0.599
254.37	0.861
254.73	1.267
255.10	2.187
255.46	2.907
255.83	3.049
256.19	3.201
256.55	2.935
256.92	2.991
257.28	3.060
257.65	2.870
258.01	2.816
258.37	2.577
258.74	2.618
259.10	2.840
259.46	2.639
259.83	2.500
260.19	2.435
260.55	2.726
260.92	2.862
261.28	2.831
261.64	2.781
262.01	2.802
262.37	2.718
262.73	2.899
263.10	2.201
263.46	2.631
263.82	2.479
264.19	1.902
264.55	1.646
264.91	1.855
265.28	1.957
265.64	2.133
266.00	2.084
266.37	2.603
266.73	2.455
267.09	2.547
267.46	1.912
267.82	2.234
268.18	2.640
268.54	2.691
268.91	2.607
269.27	2.287
269.63	2.191
270.00	2.472
270.36	2.080
270.72	1.776
271.08	1.991
271.45	2.190
271.81	2.179
272.17	2.429
272.53	2.544
272.90	2.261
273.26	2.514
273.62	2.640
273.98	2.599
274.35	2.728
274.71	3.016
275.07	3.011
275.43	3.299
275.80	3.271
276.16	2.970
276.52	2.625
276.88	2.578
277.25	2.269
277.61	2.321
277.97	2.146
278.33	2.206
278.69	2.266
279.06	2.141
279.42	2.080
279.78	2.071
280.14	2.140
280.50	2.516
280.87	2.824
281.23	3.026
281.59	3.040
281.95	3.100
282.31	2.969
282.68	2.905
283.04	2.795
283.40	2.480
283.76	2.442
284.12	2.405
284.48	2.193
284.85	2.048
285.21	2.137
285.57	2.113
285.93	2.168
286.29	2.212
286.65	2.258
287.02	2.359
287.38	2.554
287.74	2.652
288.10	2.472
288.46	2.324
288.82	2.210
289.18	1.880
289.54	1.632
289.91	1.442
290.27	1.455
290.63	1.476
290.99	1.678
291.35	1.562
291.71	1.235
292.07	1.318
292.43	1.659
292.79	1.877
293.16	2.190
293.52	2.446
293.88	2.609
294.24	2.497
294.60	2.407
294.96	2.354
295.32	2.423
295.68	2.170
296.04	2.234
296.40	2.060
296.76	1.946
297.12	1.970
297.49	1.859
297.85	1.966
298.21	1.929
298.57	1.878
298.93	1.979
299.29	2.048
299.65	2.645
300.01	2.697
300.37	2.939
300.73	3.015
301.09	2.992
301.45	2.964
301.81	2.900
302.17	3.043
302.53	3.068
302.89	2.711
303.25	2.531
303.61	2.398
303.97	2.251
304.33	2.226
304.69	2.432
305.05	2.570
305.41	2.712
305.77	2.620
306.13	2.712
306.49	2.962
306.85	3.210
307.21	3.197
307.57	3.055
307.93	3.210
308.29	3.221
308.65	2.978
309.01	2.845
309.37	2.848
309.73	2.911
310.09	2.830
310.45	2.640
310.81	2.682
311.17	2.764
311.53	2.869
311.89	2.807
312.25	2.790
312.61	2.915
312.96	3.062
313.32	2.999
313.68	2.917
314.04	2.981
314.40	2.980
314.76	2.961
315.12	3.050
315.48	3.106
315.84	2.965
316.20	2.853
316.56	2.862
316.92	2.569
317.27	2.677
317.63	2.701
317.99	2.696
318.35	2.761
318.71	2.871
319.07	2.907
319.43	2.828
319.79	3.040
320.15	3.151
320.50	3.293
320.86	3.377
321.22	3.347
321.58	3.457
321.94	3.520
322.30	3.766
322.66	3.689
323.01	3.645
323.37	3.726
323.73	3.584
324.09	3.768
324.45	3.640
324.81	3.772
325.17	3.793
325.52	3.865
325.88	3.809
326.24	3.593
326.60	3.718
326.96	3.884
327.31	3.782
327.67	4.024
328.03	3.998
328.39	3.880
328.75	3.868
329.11	3.888
329.46	3.831
329.82	3.731
330.18	3.887
330.54	3.788
330.90	3.719
331.25	4.014
331.61	3.947
331.97	3.875
332.33	4.157
332.68	4.243
333.04	4.257
333.40	4.237
333.76	4.495
334.11	4.500
334.47	4.622
334.83	4.546
335.19	4.401
335.54	4.379
335.90	4.380
336.26	4.329
336.62	4.409
336.97	4.426
337.33	4.508
337.69	4.449
338.05	4.496
338.40	4.464
338.76	4.528
339.12	4.495
339.48	4.449
339.83	4.382
340.19	4.406
340.55	4.373
340.90	4.341
341.26	4.312
341.62	4.278
341.97	4.265
342.33	4.214
342.69	4.284
343.04	4.302
343.40	4.387
343.76	4.364
344.12	4.386
344.47	4.358
344.83	4.457
345.19	4.530
345.54	4.575
345.90	4.528
346.26	4.565
346.61	4.506
346.97	4.551
347.32	4.507
347.68	4.667
348.04	4.642
348.39	4.663
348.75	4.588
349.11	4.569
349.46	4.624
349.82	4.658
350.18	4.728
350.53	4.786
350.89	4.865
351.24	4.974
351.60	4.934
351.96	4.995
352.31	4.960
352.67	4.933
353.02	5.006
353.38	5.021
353.74	4.991
354.09	4.962
354.45	4.928
354.80	4.904
355.16	4.966
355.52	4.932
355.87	4.778
356.23	4.814
356.58	4.918
356.94	4.877
357.29	4.853
357.65	4.907
358.00	4.946
358.36	5.066
358.72	5.003
359.07	4.899
359.43	4.967
359.78	5.090
360.14	5.081
360.49	5.063
360.85	5.025
361.20	4.975
361.56	4.966
361.91	4.932
362.27	4.852
362.62	4.935
362.98	4.992
363.33	5.007
363.69	5.002
364.04	5.009
364.40	5.062
364.75	5.148
365.11	5.205
365.46	5.236
365.82	5.181
366.17	5.104
366.53	5.046
366.88	5.043
367.24	5.007
367.59	5.005
367.95	5.019
368.30	5.030
368.66	4.996
369.01	5.045
369.37	4.978
369.72	5.031
370.08	5.139
370.43	5.192
370.78	5.227
371.14	5.254
371.49	5.283
371.85	5.306
372.20	5.294
372.56	5.311
372.91	5.273
373.26	5.331
373.62	5.323
373.97	5.335
374.33	5.329
374.68	5.336
375.03	5.374
375.39	5.350
375.74	5.336
376.10	5.398
376.45	5.438
376.80	5.515
377.16	5.474
377.51	5.508
377.87	5.561
378.22	5.546
378.57	5.546
378.93	5.536
379.28	5.570
379.63	5.591
379.99	5.533
380.34	5.483
380.70	5.467
381.05	5.521
381.40	5.536
381.76	5.504
382.11	5.556
382.46	5.549
382.82	5.520
383.17	5.524
383.52	5.561
383.88	5.584
384.23	5.632
384.58	5.642
384.94	5.690
385.29	5.713
385.64	5.694
385.99	5.712
386.35	5.725
386.70	5.748
387.05	5.783
387.41	5.802
387.76	5.780
388.11	5.730
388.47	5.699
388.82	5.698
389.17	5.713
389.52	5.706
389.88	5.714
390.23	5.700
390.58	5.677
390.93	5.691
391.29	5.721
391.64	5.777
391.99	5.841
392.34	5.872
392.70	5.881
393.05	5.877
393.40	5.902
393.75	5.860
394.11	5.864
394.46	5.888
394.81	5.862
395.16	5.818
395.52	5.829
395.87	5.818
396.22	5.830
396.57	5.800
396.92	5.782
397.28	5.774
397.63	5.759
397.98	5.781
398.33	5.812
398.68	5.795
399.04	5.768
399.39	5.704
399.74	5.725
400.09	5.728
400.44	5.747
400.80	5.766
401.15	5.760
401.50	5.801
401.85	5.798
402.20	5.790
402.55	5.819
402.90	5.840
403.26	5.863
403.61	5.828
403.96	5.805
404.31	5.816
404.66	5.812
405.01	5.836
405.36	5.855
405.72	5.907
406.07	5.908
406.42	5.953
406.77	5.993
407.12	6.018
407.47	6.053
407.82	6.076
408.17	6.045
408.53	6.051
408.88	6.047
409.23	6.033
409.58	6.003
409.93	6.021
410.28	5.994
410.63	5.985
410.98	5.970
411.33	5.950
411.68	5.936
412.03	5.964
412.38	5.950
412.73	5.924
413.09	5.883
413.44	5.855
413.79	5.824
414.14	5.804
414.49	5.755
414.84	5.744
415.19	5.731
415.54	5.695
415.89	5.648
416.24	5.642
416.59	5.635
416.94	5.642
417.29	5.608
417.64	5.573
417.99	5.547
418.34	5.516
418.69	5.463
419.04	5.425
419.39	5.427
419.74	5.412
420.09	5.371
420.44	5.347
420.79	5.322
421.14	5.312
421.49	5.326
421.84	5.305
422.19	5.320
422.54	5.353
422.89	5.363
423.24	5.348
423.59	5.354
423.94	5.372
424.29	5.401
424.64	5.405
424.99	5.458
425.34	5.461
425.68	5.475
426.03	5.478
426.38	5.469
426.73	5.490
427.08	5.509
427.43	5.517
427.78	5.533
428.13	5.512
428.48	5.529
428.83	5.502
429.18	5.499
429.53	5.504
429.87	5.496
430.22	5.508
430.57	5.493
430.92	5.456
431.27	5.440
431.62	5.412
431.97	5.403
432.32	5.380
432.67	5.372
433.01	5.368
433.36	5.378
433.71	5.389
434.06	5.385
434.41	5.385
434.76	5.427
435.11	5.454
435.45	5.467
435.80	5.458
436.15	5.484
436.50	5.490
436.85	5.486
437.20	5.465
437.54	5.449
437.89	5.445
438.24	5.430
438.59	5.403
438.94	5.369
439.29	5.356
439.63	5.360
439.98	5.336
440.33	5.334
440.68	5.309
441.03	5.296
441.37	5.269
441.72	5.240
442.07	5.223
442.42	5.218
442.76	5.210
443.11	5.196
443.46	5.171
443.81	5.152
444.16	5.127
444.50	5.123
444.85	5.121
445.20	5.133
445.55	5.123
445.89	5.121
446.24	5.099
446.59	5.096
446.94	5.105
447.28	5.120
447.63	5.112
447.98	5.076
448.32	5.043
448.67	5.024
449.02	5.001
449.37	5.001
449.71	5.003
450.06	5.021
450.41	5.005
450.75	4.977
451.10	4.967
451.45	4.962
451.79	4.982
452.14	5.013
452.49	5.012
452.84	5.012
453.18	5.014
453.53	5.003
453.88	5.013
454.22	5.017
454.57	5.015
454.92	4.995
455.26	4.992
455.61	4.990
455.95	4.991
456.30	4.998
456.65	5.001
456.99	5.002
457.34	5.014
457.69	5.009
458.03	5.015
458.38	5.040
458.73	5.069
459.07	5.103
459.42	5.127
459.76	5.155
460.11	5.187
460.46	5.228
460.80	5.254
461.15	5.289
461.49	5.318
461.84	5.364
462.19	5.410
462.53	5.421
462.88	5.440
463.22	5.471
463.57	5.503
463.91	5.535
464.26	5.564
464.61	5.585
464.95	5.624
465.30	5.666
465.64	5.704
465.99	5.712
466.33	5.759
466.68	5.776
467.02	5.793
467.37	5.822
467.71	5.834
468.06	5.835
468.41	5.858
468.75	5.854
469.10	5.872
469.44	5.890
469.79	5.906
470.13	5.905
470.48	5.939
470.82	5.975
471.17	5.969
471.51	5.975
471.86	5.993
472.20	5.983
472.55	6.005
472.89	5.984
473.23	5.948
473.58	5.926
473.92	5.907
474.27	5.887
474.61	5.864
474.96	5.851
475.30	5.843
475.65	5.824
475.99	5.830
476.34	5.797
476.68	5.793
477.02	5.804
477.37	5.811
477.71	5.809
478.06	5.808
478.40	5.793
478.75	5.818
479.09	5.842
479.43	5.874
479.78	5.920
480.12	5.970
480.47	6.015
480.81	6.060
481.15	6.118
481.50	6.182
481.84	6.265
482.19	6.353
482.53	6.402
482.87	6.415
483.22	6.381
483.56	6.312
483.90	6.235
484.25	6.193
484.59	6.167
484.94	6.133
485.28	6.097
485.62	6.036
485.97	5.969
486.31	5.928
486.65	5.929
487.00	5.991
487.34	6.082
487.68	6.187
488.03	6.257
488.37	6.300
488.71	6.345
489.06	6.377
489.40	6.417
489.74	6.452
490.09	6.492
490.43	6.529
490.77	6.557
491.11	6.608
491.46	6.670
491.80	6.722
492.14	6.775
492.49	6.836
492.83	6.920
493.17	6.997
493.51	7.089
493.86	7.204
494.20	7.330
494.54	7.450
494.88	7.567
495.23	7.666
495.57	7.793
495.91	7.924
496.25	8.044
496.60	8.144
496.94	8.286
497.28	8.444
497.62	8.578
497.97	8.733
498.31	8.897
498.65	9.079
498.99	9.286
499.33	9.485
499.68	9.683
500.02	9.880
500.36	10.111
500.70	10.311
501.04	10.522
501.39	10.746
501.73	10.975
502.07	11.197
502.41	11.424
502.75	11.645
503.09	11.896
503.44	12.156
503.78	12.426
504.12	12.694
504.46	12.963
504.80	13.241
505.14	13.529
505.49	13.801
505.83	14.087
506.17	14.362
506.51	14.664
506.85	14.929
507.19	15.199
507.53	15.481
507.87	15.765
508.22	16.064
508.56	16.388
508.90	16.676
509.24	16.993
509.58	17.320
509.92	17.652
510.26	17.956
510.60	18.294
510.94	18.646
511.28	19.016
511.63	19.393
511.97	19.747
512.31	20.083
512.65	20.456
512.99	20.843
513.33	21.232
513.67	21.609
514.01	22.023
514.35	22.393
514.69	22.738
515.03	23.058
515.37	23.354
515.71	23.667
516.05	23.921
516.39	24.192
516.73	24.449
517.07	24.709
517.41	24.993
517.75	25.268
518.09	25.541
518.43	25.840
518.77	26.146
519.11	26.460
519.45	26.767
519.79	27.121
520.13	27.466
520.47	27.812
520.81	28.171
521.15	28.473
521.49	28.741
521.83	28.986
522.17	29.211
522.51	29.417
522.85	29.643
523.19	29.898
523.53	30.205
523.87	30.544
524.21	30.859
524.55	31.150
524.89	31.427
525.23	31.682
525.57	31.943
525.91	32.186
526.25	32.436
526.58	32.659
526.92	32.861
527.26	33.030
527.60	33.135
527.94	33.250
528.28	33.368
528.62	33.464
528.96	33.578
529.30	33.679
529.64	33.770
529.97	33.852
530.31	33.931
530.65	34.018
530.99	34.097
531.33	34.232
531.67	34.362
532.01	34.461
532.35	34.592
532.68	34.699
533.02	34.799
533.36	34.895
533.70	34.991
534.04	35.087
534.38	35.200
534.71	35.334
535.05	35.446
535.39	35.527
535.73	35.630
536.07	35.692
536.41	35.807
536.74	35.913
537.08	36.027
537.42	36.125
537.76	36.264
538.10	36.383
538.43	36.481
538.77	36.568
539.11	36.664
539.45	36.743
539.79	36.834
540.12	36.886
540.46	36.931
540.80	36.961
541.14	37.015
541.47	37.053
541.81	37.065
542.15	37.095
542.49	37.143
542.82	37.186
543.16	37.245
543.50	37.309
543.84	37.381
544.17	37.473
544.51	37.571
544.85	37.635
545.18	37.690
545.52	37.777
545.86	37.867
546.20	37.953
546.53	38.056
546.87	38.143
547.21	38.252
547.54	38.343
547.88	38.448
548.22	38.546
548.55	38.635
548.89	38.680
549.23	38.741
549.56	38.794
549.90	38.802
550.24	38.811
550.57	38.796
550.91	38.804
551.25	38.842
551.58	38.858
551.92	38.910
552.26	38.980
552.59	39.065
552.93	39.155
553.27	39.225
553.60	39.325
553.94	39.369
554.27	39.476
554.61	39.525
554.95	39.575
555.28	39.562
555.62	39.560
555.95	39.599
556.29	39.632
556.63	39.618
556.96	39.623
557.30	39.645
557.63	39.665
557.97	39.641
558.31	39.645
558.64	39.641
558.98	39.707
559.31	39.717
559.65	39.687
559.98	39.637
560.32	39.644
560.65	39.611
560.99	39.557
561.33	39.525
561.66	39.504
562.00	39.497
562.33	39.466
562.67	39.445
563.00	39.374
563.34	39.349
563.67	39.363
564.01	39.331
564.34	39.293
564.68	39.314
565.01	39.299
565.35	39.322
565.68	39.297
566.02	39.268
566.35	39.267
566.69	39.313
567.02	39.276
567.36	39.292
567.69	39.262
568.03	39.292
568.36	39.240
568.69	39.269
569.03	39.249
569.36	39.244
569.70	39.246
570.03	39.177
570.37	39.130
570.70	39.140
571.04	39.096
571.37	39.079
571.70	39.051
572.04	39.050
572.37	39.028
572.71	39.019
573.04	39.035
573.37	39.038
573.71	39.104
574.04	39.178
574.38	39.251
574.71	39.304
575.04	39.388
575.38	39.458
575.71	39.531
576.05	39.600
576.38	39.674
576.71	39.736
577.05	39.837
577.38	39.883
577.71	39.897
578.05	39.891
578.38	39.884
578.71	39.863
579.05	39.863
579.38	39.844
579.71	39.848
580.05	39.820
580.38	39.793
580.71	39.718
581.05	39.704
581.38	39.725
581.71	39.722
582.05	39.752
582.38	39.741
582.71	39.712
583.04	39.717
583.38	39.674
583.71	39.653
584.04	39.594
584.38	39.606
584.71	39.558
585.04	39.473
585.37	39.405
585.71	39.343
586.04	39.302
586.37	39.293
586.70	39.228
587.04	39.208
587.37	39.167
587.70	39.117
588.03	39.020
588.37	38.996
588.70	38.982
589.03	38.957
589.36	38.925
589.69	38.882
590.03	38.779
590.36	38.737
590.69	38.638
591.02	38.546
591.35	38.505
591.69	38.475
592.02	38.356
592.35	38.263
592.68	38.144
593.01	38.013
593.35	37.938
593.68	37.818
594.01	37.741
594.34	37.677
594.67	37.657
595.00	37.581
595.34	37.523
595.67	37.485
596.00	37.480
596.33	37.503
596.66	37.530
596.99	37.527
597.32	37.605
597.65	37.568
597.99	37.538
598.32	37.464
598.65	37.420
598.98	37.360
599.31	37.276
599.64	37.151
599.97	37.032
600.30	36.877
600.63	36.726
600.96	36.604
601.30	36.487
601.63	36.399
601.96	36.313
602.29	36.275
602.62	36.227
602.95	36.180
603.28	36.129
603.61	36.040
603.94	36.024
604.27	36.037
604.60	36.004
604.93	36.043
605.26	36.012
605.59	35.981
605.92	35.928
606.25	35.895
606.58	35.860
606.91	35.772
607.24	35.747
607.57	35.719
607.90	35.691
608.23	35.632
608.56	35.564
608.89	35.564
609.22	35.545
609.55	35.557
609.88	35.528
610.21	35.562
610.54	35.593
610.87	35.572
611.20	35.569
611.53	35.519
611.86	35.533
612.19	35.551
612.52	35.510
612.85	35.493
613.18	35.442
613.51	35.363
613.84	35.304
614.17	35.287
614.49	35.232
614.82	35.210
615.15	35.195
615.48	35.125
615.81	35.063
616.14	34.975
616.47	34.929
616.80	34.906
617.13	34.905
617.46	34.843
617.78	34.750
618.11	34.740
618.44	34.679
618.77	34.630
619.10	34.603
619.43	34.549
619.76	34.526
620.09	34.451
620.41	34.311
620.74	34.195
621.07	34.129
621.40	34.123
621.73	34.026
622.06	33.931
622.38	33.828
622.71	33.712
623.04	33.563
623.37	33.446
623.70	33.363
624.02	33.304
624.35	33.254
624.68	33.164
625.01	33.037
625.34	32.994
625.66	32.938
625.99	32.872
626.32	32.849
626.65	32.920
626.98	32.977
627.30	32.984
627.63	32.997
627.96	32.971
628.29	33.005
628.61	32.991
628.94	32.950
629.27	32.895
629.60	32.905
629.92	32.853
630.25	32.697
630.58	32.564
630.91	32.486
631.23	32.393
631.56	32.362
631.89	32.278
632.21	32.248
632.54	32.209
632.87	32.133
633.19	32.104
633.52	32.081
633.85	32.061
634.18	32.035
634.50	31.981
634.83	31.962
635.16	31.893
635.48	31.803
635.81	31.758
636.14	31.733
636.46	31.756
636.79	31.692
637.11	31.605
637.44	31.590
637.77	31.575
638.09	31.573
638.42	31.515
638.75	31.510
639.07	31.506
639.40	31.439
639.73	31.394
640.05	31.330
640.38	31.236
640.70	31.210
641.03	31.148
641.36	31.071
641.68	30.965
642.01	30.967
642.33	30.906
642.66	30.830
642.98	30.804
643.31	30.727
643.64	30.711
643.96	30.726
644.29	30.653
644.61	30.613
644.94	30.607
645.26	30.640
645.59	30.537
645.91	30.475
646.24	30.389
646.56	30.339
646.89	30.318
647.22	30.229
647.54	30.106
647.87	30.105
648.19	30.066
