OOIBase32 Version 2.0.0.6 Data File
++++++++++++++++++++++++++++++++++++
Date: 01-23-2012, 22:14:16
User: Valued Ocean Optics Customer
Spectrometer Serial Number: USB2E2917
Spectrometer Channel: Master
Integration Time (msec): 5
Spectra Averaged: 10
Boxcar Smoothing: 5
Correct for Electrical Dark: Enabled
Time Normalized: Disabled
Dual-beam Reference: Disabled
Reference Channel: Master
Temperature: Not acquired
Spectrometer Type: S2000
ADC Type: USB2000
Number of Pixels in File: 2048
Graph Title: 
>>>>>Begin Spectral Data<<<<<
180.30	0.000
180.67	0.000
181.03	87.145
181.40	-125.872
181.77	6990.133
182.14	155.030
182.51	110.242
182.88	-4495.233
183.25	-207.913
183.62	-177.736
183.99	165.762
184.36	30.375
184.73	84.961
185.10	16.655
185.46	7.622
185.83	215.187
186.20	9.190
186.57	257.679
186.94	-11.248
187.31	222.052
187.68	-266.082
188.05	-28.673
188.42	-1.345
188.78	11.927
189.15	8.661
189.52	20.837
189.89	6.758
190.26	-8.302
190.63	5.121
191.00	6.025
191.37	14.839
191.73	19.987
192.10	26.094
192.47	12.263
192.84	4.713
193.21	2.952
193.58	5.223
193.94	7.012
194.31	6.603
194.68	15.744
195.05	13.932
195.42	-0.987
195.79	-9.794
196.15	-16.647
196.52	-14.634
196.89	-21.192
197.26	-22.357
197.63	-37.510
198.00	-34.899
198.36	-23.376
198.73	-27.974
199.10	-23.221
199.47	-7.007
199.84	-6.040
200.20	9.927
200.57	-5.390
200.94	-8.341
201.31	-3.534
201.68	23.817
202.04	12.011
202.41	8.671
202.78	-5.298
203.15	-10.862
203.51	-44.037
203.88	-47.433
204.25	-69.196
204.62	-35.605
204.98	-26.560
205.35	-24.984
205.72	-28.513
206.09	-9.216
206.46	1.839
206.82	17.752
207.19	23.318
207.56	24.790
207.92	20.715
208.29	31.385
208.66	30.936
209.03	31.039
209.39	22.964
209.76	1.981
210.13	-12.320
210.50	-30.256
210.86	-36.886
211.23	-10.107
211.60	1.340
211.96	11.498
212.33	-1.930
212.70	2.345
213.07	-7.026
213.43	0.393
213.80	4.320
214.17	10.641
214.53	12.981
214.90	10.920
215.27	-10.381
215.63	-28.762
216.00	-25.704
216.37	-12.303
216.74	-26.009
217.10	-18.591
217.47	-25.669
217.84	-21.303
218.20	-15.042
218.57	-8.855
218.94	-3.853
219.30	6.245
219.67	10.361
220.04	2.007
220.40	-2.436
220.77	-3.193
221.13	-12.881
221.50	-21.569
221.87	-28.399
222.23	-38.108
222.60	-32.243
222.97	-36.997
223.33	-38.292
223.70	-33.309
224.07	-24.432
224.43	-20.547
224.80	-11.488
225.16	-8.743
225.53	-2.678
225.90	-3.620
226.26	-3.005
226.63	-4.872
226.99	-2.431
227.36	-0.529
227.73	-1.934
228.09	-5.450
228.46	-5.289
228.82	-7.038
229.19	-5.898
229.56	-9.957
229.92	-8.738
230.29	-8.006
230.65	-8.103
231.02	-7.767
231.38	-10.953
231.75	-7.993
232.12	-3.482
232.48	-2.241
232.85	-0.827
233.21	1.820
233.58	4.292
233.94	5.564
234.31	3.134
234.68	3.820
235.04	2.602
235.41	4.913
235.77	3.137
236.14	2.139
236.50	0.463
236.87	0.946
237.23	-1.224
237.60	-0.554
237.96	-0.476
238.33	2.099
238.69	2.496
239.06	2.696
239.42	3.036
239.79	3.685
240.15	4.259
240.52	3.889
240.88	3.210
241.25	3.182
241.61	2.917
241.98	3.128
242.34	2.343
242.71	2.731
243.07	2.864
243.44	2.685
243.80	2.321
244.17	2.266
244.53	2.804
244.90	2.939
245.26	3.293
245.63	3.229
245.99	3.169
246.36	3.642
246.72	3.124
247.09	3.075
247.45	2.942
247.81	3.018
248.18	2.455
248.54	2.283
248.91	2.167
249.27	2.006
249.64	2.070
250.00	1.974
250.36	1.622
250.73	2.254
251.09	2.494
251.46	2.804
251.82	3.588
252.19	4.454
252.55	4.593
252.91	4.753
253.28	3.998
253.64	4.340
254.01	4.051
254.37	3.786
254.73	3.759
255.10	3.534
255.46	3.013
255.83	2.264
256.19	1.824
256.55	1.806
256.92	2.038
257.28	2.438
257.65	2.494
258.01	2.870
258.37	2.833
258.74	2.724
259.10	2.892
259.46	3.251
259.83	3.353
260.19	3.396
260.55	3.354
260.92	3.172
261.28	2.710
261.64	2.274
262.01	1.652
262.37	1.403
262.73	1.033
263.10	0.540
263.46	0.483
263.82	0.724
264.19	0.936
264.55	1.036
264.91	1.257
265.28	1.974
265.64	2.168
266.00	2.111
266.37	2.155
266.73	2.444
267.09	2.364
267.46	2.161
267.82	2.043
268.18	2.226
268.54	2.359
268.91	2.374
269.27	2.335
269.63	2.477
270.00	2.759
270.36	2.800
270.72	2.843
271.08	2.793
271.45	2.918
271.81	3.137
272.17	3.167
272.53	2.985
272.90	2.786
273.26	2.535
273.62	2.365
273.98	2.141
274.35	2.049
274.71	1.895
275.07	2.019
275.43	2.090
275.80	1.946
276.16	2.128
276.52	1.947
276.88	1.883
277.25	1.876
277.61	2.046
277.97	2.290
278.33	2.325
278.69	2.361
279.06	2.437
279.42	2.063
279.78	1.968
280.14	1.738
280.50	1.868
280.87	2.016
281.23	2.285
281.59	2.297
281.95	2.320
282.31	2.589
282.68	2.645
283.04	2.664
283.40	2.808
283.76	2.771
284.12	2.779
284.48	2.844
284.85	2.752
285.21	2.702
285.57	2.685
285.93	2.695
286.29	2.633
286.65	2.602
287.02	2.648
287.38	2.717
287.74	2.844
288.10	2.764
288.46	2.727
288.82	2.622
289.18	2.414
289.54	2.313
289.91	2.514
290.27	2.586
290.63	2.653
290.99	2.634
291.35	2.732
291.71	2.924
292.07	2.908
292.43	3.082
292.79	3.443
293.16	3.471
293.52	3.559
293.88	3.368
294.24	3.219
294.60	3.036
294.96	3.039
295.32	3.130
295.68	2.862
296.04	2.973
296.40	2.792
296.76	2.689
297.12	2.846
297.49	2.830
297.85	2.887
298.21	3.027
298.57	3.136
298.93	3.099
299.29	2.915
299.65	2.954
300.01	2.904
300.37	3.075
300.73	3.129
301.09	3.008
301.45	3.127
301.81	3.046
302.17	3.030
302.53	3.217
302.89	3.329
303.25	3.344
303.61	3.491
303.97	3.461
304.33	3.354
304.69	3.275
305.05	3.323
305.41	3.229
305.77	3.190
306.13	3.153
306.49	3.194
306.85	3.238
307.21	3.274
307.57	3.183
307.93	3.331
308.29	3.469
308.65	3.485
309.01	3.579
309.37	3.638
309.73	3.704
310.09	3.669
310.45	3.615
310.81	3.640
311.17	3.507
311.53	3.551
311.89	3.532
312.25	3.404
312.61	3.414
312.96	3.419
313.32	3.463
313.68	3.378
314.04	3.441
314.40	3.398
314.76	3.341
315.12	3.468
315.48	3.555
315.84	3.462
316.20	3.641
316.56	3.709
316.92	3.650
317.27	3.532
317.63	3.656
317.99	3.726
318.35	3.759
318.71	3.815
319.07	3.909
319.43	3.909
319.79	4.088
320.15	3.991
320.50	4.016
320.86	4.189
321.22	4.335
321.58	4.402
321.94	4.476
322.30	4.605
322.66	4.794
323.01	4.980
323.37	5.122
323.73	5.327
324.09	5.648
324.45	6.012
324.81	6.195
325.17	6.402
325.52	6.603
325.88	6.792
326.24	6.978
326.60	7.137
326.96	7.315
327.31	7.537
327.67	7.736
328.03	7.920
328.39	7.866
328.75	8.009
329.11	8.256
329.46	8.444
329.82	8.582
330.18	8.813
330.54	9.059
330.90	9.185
331.25	9.299
331.61	9.309
331.97	9.296
332.33	9.577
332.68	9.524
333.04	9.402
333.40	9.476
333.76	9.511
334.11	9.396
334.47	9.290
334.83	9.229
335.19	9.244
335.54	9.290
335.90	9.351
336.26	9.295
336.62	9.461
336.97	9.538
337.33	9.436
337.69	9.581
338.05	9.630
338.40	9.674
338.76	9.780
339.12	9.857
339.48	9.839
339.83	9.796
340.19	9.717
340.55	9.596
340.90	9.566
341.26	9.618
341.62	9.548
341.97	9.595
342.33	9.668
342.69	9.628
343.04	9.601
343.40	9.631
343.76	9.737
344.12	9.944
344.47	10.098
344.83	10.154
345.19	10.153
345.54	10.197
345.90	10.273
346.26	10.182
346.61	10.256
346.97	10.256
347.32	10.316
347.68	10.166
348.04	10.036
348.39	10.031
348.75	10.169
349.11	10.250
349.46	10.222
349.82	10.267
350.18	10.416
350.53	10.411
350.89	10.518
351.24	10.443
351.60	10.557
351.96	10.610
352.31	10.629
352.67	10.573
353.02	10.593
353.38	10.538
353.74	10.518
354.09	10.500
354.45	10.549
354.80	10.471
355.16	10.578
355.52	10.732
355.87	10.689
356.23	10.669
356.58	10.747
356.94	10.744
357.29	10.825
357.65	10.872
358.00	10.888
358.36	10.844
358.72	10.944
359.07	10.922
359.43	10.879
359.78	10.988
360.14	11.032
360.49	11.065
360.85	11.145
361.20	11.226
361.56	11.237
361.91	11.281
362.27	11.401
362.62	11.416
362.98	11.499
363.33	11.559
363.69	11.562
364.04	11.571
364.40	11.590
364.75	11.594
365.11	11.623
365.46	11.676
365.82	11.668
366.17	11.695
366.53	11.709
366.88	11.660
367.24	11.768
367.59	11.820
367.95	11.927
368.30	11.954
368.66	11.993
369.01	12.092
369.37	12.167
369.72	12.272
370.08	12.338
370.43	12.367
370.78	12.499
371.14	12.506
371.49	12.581
371.85	12.625
372.20	12.754
372.56	12.881
372.91	12.908
373.26	12.937
373.62	12.998
373.97	13.081
374.33	13.231
374.68	13.299
375.03	13.383
375.39	13.423
375.74	13.485
376.10	13.518
376.45	13.604
376.80	13.679
377.16	13.790
377.51	13.861
377.87	13.869
378.22	13.947
378.57	14.079
378.93	14.166
379.28	14.322
379.63	14.459
379.99	14.590
380.34	14.688
380.70	14.802
381.05	14.940
381.40	15.068
381.76	15.221
382.11	15.345
382.46	15.434
382.82	15.540
383.17	15.620
383.52	15.701
383.88	15.769
384.23	15.885
384.58	15.958
384.94	16.054
385.29	16.183
385.64	16.326
385.99	16.417
386.35	16.554
386.70	16.664
387.05	16.725
387.41	16.781
387.76	16.833
388.11	16.839
388.47	16.941
388.82	16.958
389.17	16.996
389.52	17.043
389.88	17.101
390.23	17.131
390.58	17.173
390.93	17.252
391.29	17.360
391.64	17.437
391.99	17.543
392.34	17.618
392.70	17.707
393.05	17.748
393.40	17.773
393.75	17.827
394.11	17.875
394.46	17.940
394.81	18.030
395.16	18.081
395.52	18.147
395.87	18.147
396.22	18.159
396.57	18.188
396.92	18.235
397.28	18.312
397.63	18.322
397.98	18.415
398.33	18.435
398.68	18.461
399.04	18.496
399.39	18.567
399.74	18.667
400.09	18.684
400.44	18.741
400.80	18.750
401.15	18.791
401.50	18.839
401.85	18.810
402.20	18.843
402.55	18.812
402.90	18.822
403.26	18.845
403.61	18.828
403.96	18.909
404.31	18.943
404.66	18.987
405.01	19.003
405.36	19.035
405.72	19.058
406.07	19.093
406.42	19.153
406.77	19.178
407.12	19.154
407.47	19.188
407.82	19.153
408.17	19.143
408.53	19.158
408.88	19.172
409.23	19.173
409.58	19.182
409.93	19.205
410.28	19.283
410.63	19.290
410.98	19.337
411.33	19.343
411.68	19.355
412.03	19.344
412.38	19.336
412.73	19.303
413.09	19.299
413.44	19.269
413.79	19.230
414.14	19.169
414.49	19.157
414.84	19.118
415.19	19.078
415.54	19.038
415.89	18.999
416.24	18.964
416.59	18.942
416.94	18.899
417.29	18.863
417.64	18.831
417.99	18.801
418.34	18.769
418.69	18.745
419.04	18.730
419.39	18.727
419.74	18.735
420.09	18.754
420.44	18.737
420.79	18.739
421.14	18.750
421.49	18.747
421.84	18.766
422.19	18.783
422.54	18.831
422.89	18.846
423.24	18.893
423.59	18.898
423.94	18.909
424.29	18.961
424.64	18.998
424.99	19.051
425.34	19.126
425.68	19.191
426.03	19.251
426.38	19.256
426.73	19.344
427.08	19.360
427.43	19.431
427.78	19.442
428.13	19.458
428.48	19.477
428.83	19.508
429.18	19.485
429.53	19.463
429.87	19.457
430.22	19.433
430.57	19.418
430.92	19.402
431.27	19.375
431.62	19.393
431.97	19.379
432.32	19.402
432.67	19.371
433.01	19.381
433.36	19.398
433.71	19.426
434.06	19.452
434.41	19.458
434.76	19.504
435.11	19.524
435.45	19.496
435.80	19.478
436.15	19.434
436.50	19.453
436.85	19.434
437.20	19.416
437.54	19.405
437.89	19.400
438.24	19.384
438.59	19.347
438.94	19.336
439.29	19.354
439.63	19.376
439.98	19.395
440.33	19.374
440.68	19.394
441.03	19.382
441.37	19.371
441.72	19.355
442.07	19.346
442.42	19.319
442.76	19.292
443.11	19.284
443.46	19.264
443.81	19.256
444.16	19.241
444.50	19.233
444.85	19.245
445.20	19.251
445.55	19.270
445.89	19.301
446.24	19.333
446.59	19.391
446.94	19.409
447.28	19.442
447.63	19.509
447.98	19.571
448.32	19.625
448.67	19.668
449.02	19.704
449.37	19.715
449.71	19.736
450.06	19.754
450.41	19.762
450.75	19.783
451.10	19.818
451.45	19.820
451.79	19.821
452.14	19.813
452.49	19.818
452.84	19.822
453.18	19.837
453.53	19.847
453.88	19.873
454.22	19.870
454.57	19.872
454.92	19.873
455.26	19.875
455.61	19.878
455.95	19.882
456.30	19.886
456.65	19.888
456.99	19.918
457.34	19.920
457.69	19.940
458.03	19.945
458.38	19.972
458.73	20.009
459.07	20.045
459.42	20.096
459.76	20.128
460.11	20.173
460.46	20.214
460.80	20.266
461.15	20.334
461.49	20.388
461.84	20.475
462.19	20.547
462.53	20.600
462.88	20.636
463.22	20.679
463.57	20.770
463.91	20.821
464.26	20.885
464.61	20.921
464.95	20.968
465.30	21.025
465.64	21.084
465.99	21.114
466.33	21.149
466.68	21.212
467.02	21.263
467.37	21.249
467.71	21.285
468.06	21.315
468.41	21.364
468.75	21.392
469.10	21.391
469.44	21.380
469.79	21.401
470.13	21.454
470.48	21.454
470.82	21.484
471.17	21.563
471.51	21.598
471.86	21.622
472.20	21.624
472.55	21.669
472.89	21.716
473.23	21.757
473.58	21.789
473.92	21.786
474.27	21.797
474.61	21.800
474.96	21.759
475.30	21.721
475.65	21.723
475.99	21.722
476.34	21.704
476.68	21.734
477.02	21.734
477.37	21.734
477.71	21.730
478.06	21.767
478.40	21.812
478.75	21.961
479.09	22.155
479.43	22.328
479.78	22.570
480.12	22.831
480.47	23.104
480.81	23.418
481.15	23.759
481.50	24.110
481.84	24.527
482.19	24.982
482.53	25.344
482.87	25.515
483.22	25.492
483.56	25.246
483.90	24.879
484.25	24.421
484.59	23.982
484.94	23.658
485.28	23.354
485.62	22.938
485.97	22.490
486.31	22.095
486.65	21.871
487.00	21.867
487.34	22.029
487.68	22.294
488.03	22.626
488.37	22.911
488.71	23.007
489.06	23.031
489.40	23.063
489.74	23.079
490.09	23.111
490.43	23.128
490.77	23.126
491.11	23.160
491.46	23.182
491.80	23.213
492.14	23.237
492.49	23.267
492.83	23.312
493.17	23.364
493.51	23.418
493.86	23.465
494.20	23.521
494.54	23.579
494.88	23.628
495.23	23.689
495.57	23.755
495.91	23.836
496.25	23.892
496.60	23.932
496.94	23.992
497.28	24.050
497.62	24.116
497.97	24.206
498.31	24.309
498.65	24.397
498.99	24.491
499.33	24.562
499.68	24.629
500.02	24.722
500.36	24.815
500.70	24.899
501.04	24.961
501.39	25.022
501.73	25.103
502.07	25.154
502.41	25.237
502.75	25.292
503.09	25.353
503.44	25.413
503.78	25.467
504.12	25.532
504.46	25.578
504.80	25.656
505.14	25.720
505.49	25.770
505.83	25.822
506.17	25.844
506.51	25.919
506.85	25.979
507.19	26.065
507.53	26.143
507.87	26.198
508.22	26.289
508.56	26.352
508.90	26.425
509.24	26.500
509.58	26.594
509.92	26.686
510.26	26.731
510.60	26.814
510.94	26.856
511.28	26.916
511.63	27.012
511.97	27.057
512.31	27.135
512.65	27.182
512.99	27.225
513.33	27.278
513.67	27.355
514.01	27.446
514.35	27.481
514.69	27.539
515.03	27.614
515.37	27.630
515.71	27.683
516.05	27.701
516.39	27.751
516.73	27.802
517.07	27.815
517.41	27.839
517.75	27.856
518.09	27.922
518.43	27.950
518.77	27.956
519.11	27.999
519.45	28.041
519.79	28.092
520.13	28.143
520.47	28.173
520.81	28.247
521.15	28.308
521.49	28.361
521.83	28.374
522.17	28.426
522.51	28.462
522.85	28.507
523.19	28.582
523.53	28.694
523.87	28.830
524.21	28.955
524.55	29.075
524.89	29.189
525.23	29.313
525.57	29.407
525.91	29.500
526.25	29.597
526.58	29.679
526.92	29.725
527.26	29.753
527.60	29.745
527.94	29.738
528.28	29.692
528.62	29.629
528.96	29.562
529.30	29.522
529.64	29.460
529.97	29.396
530.31	29.333
530.65	29.274
530.99	29.228
531.33	29.188
531.67	29.189
532.01	29.211
532.35	29.233
532.68	29.224
533.02	29.214
533.36	29.206
533.70	29.183
534.04	29.159
534.38	29.167
534.71	29.154
535.05	29.148
535.39	29.140
535.73	29.132
536.07	29.122
536.41	29.176
536.74	29.199
537.08	29.226
537.42	29.273
537.76	29.323
538.10	29.361
538.43	29.385
538.77	29.440
539.11	29.449
539.45	29.475
539.79	29.498
540.12	29.484
540.46	29.473
540.80	29.460
541.14	29.430
541.47	29.401
541.81	29.381
542.15	29.356
542.49	29.313
542.82	29.262
543.16	29.216
543.50	29.184
543.84	29.167
544.17	29.180
544.51	29.186
544.85	29.210
545.18	29.220
545.52	29.212
545.86	29.227
546.20	29.233
546.53	29.255
546.87	29.285
547.21	29.303
547.54	29.294
547.88	29.291
548.22	29.305
548.55	29.307
548.89	29.320
549.23	29.319
549.56	29.312
549.90	29.323
550.24	29.351
550.57	29.326
550.91	29.320
551.25	29.347
551.58	29.329
551.92	29.320
552.26	29.303
552.59	29.311
552.93	29.331
553.27	29.327
553.60	29.281
553.94	29.286
554.27	29.293
554.61	29.302
554.95	29.291
555.28	29.296
555.62	29.305
555.95	29.334
556.29	29.323
556.63	29.279
556.96	29.273
557.30	29.300
557.63	29.269
557.97	29.263
558.31	29.255
558.64	29.262
558.98	29.232
559.31	29.200
559.65	29.131
559.98	29.102
560.32	29.084
560.65	29.075
560.99	29.031
561.33	29.015
561.66	28.973
562.00	28.928
562.33	28.864
562.67	28.828
563.00	28.805
563.34	28.809
563.67	28.778
564.01	28.744
564.34	28.694
564.68	28.676
565.01	28.613
565.35	28.573
565.68	28.543
566.02	28.504
566.35	28.537
566.69	28.522
567.02	28.480
567.36	28.446
567.69	28.425
568.03	28.385
568.36	28.346
568.69	28.300
569.03	28.276
569.36	28.249
569.70	28.241
570.03	28.157
570.37	28.096
570.70	28.047
571.04	28.014
571.37	27.976
571.70	27.987
572.04	27.973
572.37	27.989
572.71	27.962
573.04	27.935
573.37	27.903
573.71	27.910
574.04	27.911
574.38	27.931
574.71	27.927
575.04	27.944
575.38	27.926
575.71	27.913
576.05	27.902
576.38	27.900
576.71	27.896
577.05	27.907
577.38	27.918
577.71	27.892
578.05	27.867
578.38	27.830
578.71	27.798
579.05	27.746
579.38	27.719
579.71	27.677
580.05	27.631
580.38	27.588
580.71	27.529
581.05	27.467
581.38	27.450
581.71	27.438
582.05	27.434
582.38	27.412
582.71	27.400
583.04	27.379
583.38	27.337
583.71	27.333
584.04	27.294
584.38	27.287
584.71	27.221
585.04	27.155
585.37	27.122
585.71	27.078
586.04	27.029
586.37	26.961
586.70	26.908
587.04	26.822
587.37	26.779
587.70	26.756
588.03	26.720
588.37	26.692
588.70	26.682
589.03	26.616
589.36	26.577
589.69	26.503
590.03	26.451
590.36	26.386
590.69	26.399
591.02	26.326
591.35	26.246
591.69	26.166
592.02	26.072
592.35	25.946
592.68	25.884
593.01	25.806
593.35	25.760
593.68	25.715
594.01	25.668
594.34	25.621
594.67	25.577
595.00	25.531
595.34	25.471
595.67	25.484
596.00	25.478
596.33	25.439
596.66	25.399
596.99	25.359
597.32	25.332
597.65	25.311
597.99	25.258
598.32	25.203
598.65	25.173
598.98	25.125
599.31	25.010
599.64	24.953
599.97	24.918
600.30	24.828
600.63	24.773
600.96	24.673
601.30	24.584
601.63	24.507
601.96	24.436
602.29	24.366
602.62	24.329
602.95	24.297
603.28	24.223
603.61	24.151
603.94	24.123
604.27	24.067
604.60	24.049
604.93	24.047
605.26	24.037
605.59	24.004
605.92	23.977
606.25	23.910
606.58	23.888
606.91	23.850
607.24	23.793
607.57	23.745
607.90	23.717
608.23	23.672
608.56	23.599
608.89	23.529
609.22	23.509
609.55	23.468
609.88	23.428
610.21	23.366
610.54	23.340
610.87	23.331
611.20	23.331
611.53	23.261
611.86	23.233
612.19	23.191
612.52	23.162
612.85	23.159
613.18	23.136
613.51	23.101
613.84	23.059
614.17	23.034
614.49	22.987
614.82	22.905
615.15	22.867
615.48	22.813
615.81	22.783
616.14	22.712
616.47	22.624
616.80	22.538
617.13	22.487
617.46	22.439
617.78	22.351
618.11	22.299
618.44	22.260
618.77	22.199
619.10	22.151
619.43	22.113
619.76	22.087
620.09	22.055
620.41	22.034
620.74	22.003
621.07	21.952
621.40	21.919
621.73	21.877
622.06	21.800
622.38	21.813
622.71	21.723
623.04	21.644
623.37	21.596
623.70	21.523
624.02	21.434
624.35	21.406
624.68	21.367
625.01	21.369
625.34	21.323
625.66	21.331
625.99	21.275
626.32	21.290
626.65	21.274
626.98	21.250
627.30	21.250
627.63	21.251
627.96	21.203
628.29	21.194
628.61	21.131
628.94	21.079
629.27	21.010
629.60	20.996
629.92	20.919
630.25	20.884
630.58	20.838
630.91	20.741
631.23	20.681
631.56	20.624
631.89	20.577
632.21	20.539
632.54	20.456
632.87	20.445
633.19	20.357
633.52	20.353
633.85	20.292
634.18	20.228
634.50	20.233
634.83	20.239
635.16	20.228
635.48	20.172
635.81	20.114
636.14	20.139
636.46	20.059
636.79	20.042
637.11	20.009
637.44	19.956
637.77	19.912
638.09	19.843
638.42	19.749
638.75	19.682
639.07	19.626
