OOIBase32 Version 2.0.0.6 Data File
++++++++++++++++++++++++++++++++++++
Date: 01-23-2012, 22:16:18
User: Valued Ocean Optics Customer
Spectrometer Serial Number: USB2E2917
Spectrometer Channel: Master
Integration Time (msec): 5
Spectra Averaged: 10
Boxcar Smoothing: 5
Correct for Electrical Dark: Enabled
Time Normalized: Disabled
Dual-beam Reference: Disabled
Reference Channel: Master
Temperature: Not acquired
Spectrometer Type: S2000
ADC Type: USB2000
Number of Pixels in File: 2048
Graph Title: 
>>>>>Begin Spectral Data<<<<<
180.30	0.000
180.67	0.000
181.03	1.724
181.40	-159.019
181.77	-103.667
182.14	45.897
182.51	129.701
182.88	4734.640
183.25	-377.090
183.62	-26.768
183.99	46.799
184.36	106.674
184.73	-150.898
185.10	-31.843
185.46	60.097
185.83	206.530
186.20	56.208
186.57	178.160
186.94	1.337
187.31	126.379
187.68	-140.850
188.05	-24.339
188.42	5.235
188.78	5.966
189.15	13.620
189.52	7.855
189.89	5.138
190.26	-17.947
190.63	0.364
191.00	0.855
191.37	13.370
191.73	15.086
192.10	4.903
192.47	-6.845
192.84	2.923
193.21	0.653
193.58	9.863
193.94	6.434
194.31	5.001
194.68	2.919
195.05	-0.785
195.42	-17.465
195.79	-25.541
196.15	-10.939
196.52	-5.323
196.89	-21.311
197.26	-30.001
197.63	-40.944
198.00	-46.284
198.36	-25.976
198.73	-19.073
199.10	-10.752
199.47	1.857
199.84	-3.303
200.20	-6.195
200.57	-27.497
200.94	-29.552
201.31	-25.054
201.68	-9.381
202.04	-4.453
202.41	-4.705
202.78	-21.402
203.15	-25.899
203.51	-64.203
203.88	-55.741
204.25	-68.505
204.62	-48.516
204.98	-40.409
205.35	-48.090
205.72	-53.659
206.09	-50.813
206.46	-59.560
206.82	-47.793
207.19	-62.566
207.56	-46.911
207.92	-62.652
208.29	-45.462
208.66	-40.019
209.03	-32.844
209.39	-26.114
209.76	-33.758
210.13	-45.798
210.50	-63.684
210.86	-67.025
211.23	-39.782
211.60	-38.884
211.96	-18.375
212.33	-24.905
212.70	-15.729
213.07	-31.352
213.43	-23.881
213.80	-16.045
214.17	-14.212
214.53	-3.339
214.90	6.965
215.27	10.638
215.63	11.820
216.00	5.680
216.37	8.829
216.74	-0.434
217.10	7.886
217.47	5.406
217.84	2.644
218.20	19.388
218.57	18.836
218.94	-0.915
219.30	-11.867
219.67	-2.574
220.04	1.819
220.40	2.205
220.77	2.328
221.13	4.618
221.50	-6.601
221.87	-10.865
222.23	-26.727
222.60	-20.979
222.97	-20.507
223.33	-22.788
223.70	-24.290
224.07	-23.514
224.43	-21.878
224.80	-15.658
225.16	-12.775
225.53	-8.024
225.90	-11.253
226.26	-8.654
226.63	-8.526
226.99	-5.780
227.36	-4.263
227.73	-4.317
228.09	-7.197
228.46	-7.519
228.82	-7.677
229.19	-8.935
229.56	-11.237
229.92	-7.940
230.29	-8.147
230.65	-10.002
231.02	-11.576
231.38	-13.428
231.75	-12.344
232.12	-8.625
232.48	-5.671
232.85	-5.945
233.21	-4.917
233.58	-2.678
233.94	-1.675
234.31	-3.386
234.68	-2.126
235.04	0.224
235.41	0.836
235.77	0.394
236.14	0.133
236.50	-1.967
236.87	-1.478
237.23	-2.490
237.60	-2.345
237.96	-3.611
238.33	-1.637
238.69	-1.608
239.06	-2.121
239.42	-1.286
239.79	-1.385
240.15	-0.519
240.52	-0.585
240.88	-1.037
241.25	-0.463
241.61	-0.690
241.98	0.014
242.34	-0.619
242.71	-0.443
243.07	-0.090
243.44	-0.188
243.80	-0.182
244.17	-0.572
244.53	-0.433
244.90	-0.491
245.26	-0.641
245.63	-0.571
245.99	-0.824
246.36	-0.592
246.72	-0.988
247.09	-1.416
247.45	-1.643
247.81	-1.811
248.18	-2.185
248.54	-2.453
248.91	-2.525
249.27	-2.431
249.64	-2.896
250.00	-2.743
250.36	-3.050
250.73	-2.773
251.09	-2.531
251.46	-2.302
251.82	-1.570
252.19	-0.879
252.55	-1.099
252.91	-1.056
253.28	-1.515
253.64	-1.406
254.01	-1.711
254.37	-1.657
254.73	-1.204
255.10	-0.465
255.46	-0.408
255.83	-0.994
256.19	-1.124
256.55	-1.081
256.92	-0.951
257.28	-0.781
257.65	-0.469
258.01	-0.155
258.37	-0.176
258.74	-0.203
259.10	-0.283
259.46	-0.185
259.83	0.014
260.19	-0.234
260.55	0.065
260.92	0.194
261.28	0.145
261.64	-0.099
262.01	-0.400
262.37	-0.381
262.73	-0.793
263.10	-0.914
263.46	-0.912
263.82	-0.936
264.19	-0.872
264.55	-1.031
264.91	-0.957
265.28	-0.762
265.64	-0.619
266.00	-0.553
266.37	-0.625
266.73	-0.346
267.09	-0.451
267.46	-0.408
267.82	-0.276
268.18	-0.007
268.54	0.017
268.91	0.076
269.27	0.084
269.63	0.166
270.00	0.173
270.36	0.148
270.72	0.002
271.08	-0.311
271.45	-0.580
271.81	-0.599
272.17	-0.491
272.53	-0.619
272.90	-1.032
273.26	-1.098
273.62	-1.486
273.98	-1.714
274.35	-1.735
274.71	-1.525
275.07	-1.160
275.43	-0.776
275.80	-0.768
276.16	-0.533
276.52	-0.607
276.88	-0.542
277.25	-0.835
277.61	-0.433
277.97	-0.417
278.33	-0.512
278.69	-0.691
279.06	-0.636
279.42	-1.185
279.78	-1.456
280.14	-1.671
280.50	-1.370
280.87	-1.072
281.23	-0.613
281.59	-0.741
281.95	-0.549
282.31	-0.354
282.68	-0.283
283.04	-0.405
283.40	-0.024
283.76	-0.082
284.12	-0.087
284.48	-0.116
284.85	-0.248
285.21	-0.442
285.57	-0.421
285.93	-0.515
286.29	-0.622
286.65	-0.593
287.02	-0.492
287.38	-0.582
287.74	-0.407
288.10	-0.435
288.46	-0.551
288.82	-0.675
289.18	-0.716
289.54	-0.837
289.91	-0.724
290.27	-0.634
290.63	-0.646
290.99	-0.789
291.35	-0.810
291.71	-0.521
292.07	-0.613
292.43	-0.378
292.79	0.015
293.16	-0.065
293.52	0.041
293.88	-0.016
294.24	-0.083
294.60	-0.226
294.96	-0.200
295.32	-0.038
295.68	-0.279
296.04	0.017
296.40	-0.050
296.76	-0.238
297.12	-0.136
297.49	-0.030
297.85	0.076
298.21	0.236
298.57	0.382
298.93	0.444
299.29	0.401
299.65	0.488
300.01	0.424
300.37	0.381
300.73	0.666
301.09	0.798
301.45	0.922
301.81	0.988
302.17	0.867
302.53	0.868
302.89	0.857
303.25	0.820
303.61	1.050
303.97	0.954
304.33	0.943
304.69	0.805
305.05	0.791
305.41	0.494
305.77	0.364
306.13	0.393
306.49	0.490
306.85	0.584
307.21	0.660
307.57	0.544
307.93	0.578
308.29	0.619
308.65	0.581
309.01	0.612
309.37	0.855
309.73	1.002
310.09	1.035
310.45	1.107
310.81	1.079
311.17	0.820
311.53	0.807
311.89	0.869
312.25	0.846
312.61	0.890
312.96	0.905
313.32	0.875
313.68	0.663
314.04	0.645
314.40	0.576
314.76	0.630
315.12	0.969
315.48	1.174
315.84	1.013
316.20	1.077
316.56	1.062
316.92	1.040
317.27	1.033
317.63	1.038
317.99	1.072
318.35	0.999
318.71	0.909
319.07	0.829
319.43	0.699
319.79	0.704
320.15	0.686
320.50	0.568
320.86	0.645
321.22	0.584
321.58	0.642
321.94	0.538
322.30	0.628
322.66	0.759
323.01	0.699
323.37	0.648
323.73	0.798
324.09	0.977
324.45	1.118
324.81	0.954
325.17	0.847
325.52	0.860
325.88	0.925
326.24	0.895
326.60	0.999
326.96	1.099
327.31	1.126
327.67	1.099
328.03	0.910
328.39	0.796
328.75	0.925
329.11	1.038
329.46	1.014
329.82	0.957
330.18	0.944
330.54	0.807
330.90	0.825
331.25	0.775
331.61	0.597
331.97	0.559
332.33	0.661
332.68	0.486
333.04	0.440
333.40	0.512
333.76	0.539
334.11	0.442
334.47	0.334
334.83	0.175
335.19	0.225
335.54	0.364
335.90	0.451
336.26	0.371
336.62	0.535
336.97	0.513
337.33	0.436
337.69	0.428
338.05	0.556
338.40	0.670
338.76	0.790
339.12	0.774
339.48	0.777
339.83	0.668
340.19	0.685
340.55	0.606
340.90	0.672
341.26	0.632
341.62	0.623
341.97	0.641
342.33	0.684
342.69	0.647
343.04	0.692
343.40	0.613
343.76	0.708
344.12	0.774
344.47	0.880
344.83	0.774
345.19	0.785
345.54	0.877
345.90	0.844
346.26	0.667
346.61	0.705
346.97	0.602
347.32	0.636
347.68	0.545
348.04	0.446
348.39	0.380
348.75	0.571
349.11	0.557
349.46	0.501
349.82	0.517
350.18	0.650
350.53	0.550
350.89	0.570
351.24	0.570
351.60	0.586
351.96	0.635
352.31	0.664
352.67	0.547
353.02	0.586
353.38	0.571
353.74	0.471
354.09	0.446
354.45	0.577
354.80	0.536
355.16	0.510
355.52	0.520
355.87	0.517
356.23	0.517
356.58	0.568
356.94	0.539
357.29	0.550
357.65	0.606
358.00	0.595
358.36	0.513
358.72	0.570
359.07	0.607
359.43	0.713
359.78	0.751
360.14	0.660
360.49	0.604
360.85	0.603
361.20	0.625
361.56	0.627
361.91	0.604
362.27	0.593
362.62	0.553
362.98	0.513
363.33	0.415
363.69	0.349
364.04	0.377
364.40	0.387
364.75	0.385
365.11	0.390
365.46	0.359
365.82	0.346
366.17	0.280
366.53	0.303
366.88	0.303
367.24	0.343
367.59	0.370
367.95	0.420
368.30	0.420
368.66	0.423
369.01	0.426
369.37	0.430
369.72	0.414
370.08	0.507
370.43	0.494
370.78	0.488
371.14	0.450
371.49	0.472
371.85	0.454
372.20	0.441
372.56	0.478
372.91	0.435
373.26	0.405
373.62	0.410
373.97	0.388
374.33	0.379
374.68	0.370
375.03	0.397
375.39	0.326
375.74	0.288
376.10	0.278
376.45	0.295
376.80	0.274
377.16	0.288
377.51	0.310
377.87	0.253
378.22	0.272
378.57	0.309
378.93	0.292
379.28	0.344
379.63	0.375
379.99	0.433
380.34	0.405
380.70	0.451
381.05	0.534
381.40	0.546
381.76	0.591
382.11	0.616
382.46	0.551
382.82	0.514
383.17	0.536
383.52	0.544
383.88	0.469
384.23	0.455
384.58	0.446
384.94	0.376
385.29	0.374
385.64	0.386
385.99	0.347
386.35	0.421
386.70	0.440
387.05	0.386
387.41	0.361
387.76	0.362
388.11	0.354
388.47	0.389
388.82	0.379
389.17	0.350
389.52	0.323
389.88	0.337
390.23	0.335
390.58	0.351
390.93	0.381
391.29	0.410
391.64	0.455
391.99	0.471
392.34	0.431
392.70	0.444
393.05	0.433
393.40	0.430
393.75	0.442
394.11	0.434
394.46	0.421
394.81	0.382
395.16	0.326
395.52	0.296
395.87	0.246
396.22	0.222
396.57	0.192
396.92	0.198
397.28	0.220
397.63	0.185
397.98	0.160
398.33	0.167
398.68	0.181
399.04	0.198
399.39	0.203
399.74	0.226
400.09	0.228
400.44	0.230
400.80	0.201
401.15	0.173
401.50	0.164
401.85	0.196
402.20	0.190
402.55	0.218
402.90	0.190
403.26	0.180
403.61	0.189
403.96	0.202
404.31	0.214
404.66	0.239
405.01	0.260
405.36	0.267
405.72	0.209
406.07	0.190
406.42	0.156
406.77	0.163
407.12	0.150
407.47	0.140
407.82	0.102
408.17	0.098
408.53	0.128
408.88	0.116
409.23	0.114
409.58	0.113
409.93	0.091
410.28	0.077
410.63	0.080
410.98	0.099
411.33	0.080
411.68	0.093
412.03	0.087
412.38	0.080
412.73	0.102
413.09	0.101
413.44	0.124
413.79	0.170
414.14	0.195
414.49	0.231
414.84	0.238
415.19	0.272
415.54	0.305
415.89	0.332
416.24	0.331
416.59	0.341
416.94	0.360
417.29	0.379
417.64	0.392
417.99	0.398
418.34	0.404
418.69	0.405
419.04	0.402
419.39	0.423
419.74	0.427
420.09	0.443
420.44	0.443
420.79	0.456
421.14	0.442
421.49	0.428
421.84	0.432
422.19	0.435
422.54	0.451
422.89	0.452
423.24	0.436
423.59	0.437
423.94	0.427
424.29	0.415
424.64	0.395
424.99	0.409
425.34	0.416
425.68	0.407
426.03	0.401
426.38	0.381
426.73	0.367
427.08	0.328
427.43	0.315
427.78	0.314
428.13	0.318
428.48	0.319
428.83	0.312
429.18	0.308
429.53	0.308
429.87	0.287
430.22	0.278
430.57	0.289
430.92	0.285
431.27	0.286
431.62	0.267
431.97	0.247
432.32	0.236
432.67	0.230
433.01	0.221
433.36	0.227
433.71	0.238
434.06	0.247
434.41	0.258
434.76	0.287
435.11	0.274
435.45	0.275
435.80	0.284
436.15	0.296
436.50	0.311
436.85	0.312
437.20	0.314
437.54	0.312
437.89	0.298
438.24	0.285
438.59	0.269
438.94	0.285
439.29	0.296
439.63	0.292
439.98	0.301
440.33	0.292
440.68	0.286
441.03	0.281
441.37	0.271
441.72	0.277
442.07	0.288
442.42	0.294
442.76	0.287
443.11	0.290
443.46	0.296
443.81	0.286
444.16	0.282
444.50	0.282
444.85	0.287
445.20	0.289
445.55	0.288
445.89	0.269
446.24	0.249
446.59	0.244
446.94	0.223
447.28	0.210
447.63	0.196
447.98	0.187
448.32	0.184
448.67	0.153
449.02	0.138
449.37	0.117
449.71	0.112
450.06	0.122
450.41	0.123
450.75	0.126
451.10	0.126
451.45	0.123
451.79	0.118
452.14	0.104
452.49	0.102
452.84	0.105
453.18	0.097
453.53	0.093
453.88	0.086
454.22	0.068
454.57	0.067
454.92	0.081
455.26	0.100
455.61	0.108
455.95	0.130
456.30	0.148
456.65	0.163
456.99	0.173
457.34	0.183
457.69	0.202
458.03	0.204
458.38	0.205
458.73	0.208
459.07	0.197
459.42	0.194
459.76	0.183
460.11	0.157
460.46	0.127
460.80	0.136
461.15	0.123
461.49	0.086
461.84	0.083
462.19	0.069
462.53	0.050
462.88	0.033
463.22	0.015
463.57	0.023
463.91	0.042
464.26	0.075
464.61	0.062
464.95	0.070
465.30	0.075
465.64	0.075
465.99	0.077
466.33	0.069
466.68	0.087
467.02	0.098
467.37	0.085
467.71	0.075
468.06	0.049
468.41	0.033
468.75	0.030
469.10	0.019
469.44	0.000
469.79	-0.013
470.13	-0.011
470.48	-0.045
470.82	-0.082
471.17	-0.100
471.51	-0.109
471.86	-0.122
472.20	-0.131
472.55	-0.136
472.89	-0.131
473.23	-0.136
473.58	-0.129
473.92	-0.135
474.27	-0.126
474.61	-0.102
474.96	-0.107
475.30	-0.117
475.65	-0.122
475.99	-0.113
476.34	-0.119
476.68	-0.120
477.02	-0.101
477.37	-0.106
477.71	-0.108
478.06	-0.096
478.40	-0.062
478.75	-0.008
479.09	0.045
479.43	0.101
479.78	0.148
480.12	0.183
480.47	0.220
480.81	0.252
481.15	0.295
481.50	0.331
481.84	0.357
482.19	0.373
482.53	0.392
482.87	0.401
483.22	0.400
483.56	0.393
483.90	0.384
484.25	0.375
484.59	0.361
484.94	0.342
485.28	0.322
485.62	0.307
485.97	0.295
486.31	0.272
486.65	0.257
487.00	0.243
487.34	0.239
487.68	0.232
488.03	0.220
488.37	0.207
488.71	0.195
489.06	0.187
489.40	0.172
489.74	0.150
490.09	0.138
490.43	0.122
490.77	0.102
491.11	0.077
491.46	0.063
491.80	0.042
492.14	0.017
492.49	-0.000
492.83	-0.027
493.17	-0.059
493.51	-0.076
493.86	-0.101
494.20	-0.126
494.54	-0.145
494.88	-0.162
495.23	-0.176
495.57	-0.188
495.91	-0.183
496.25	-0.201
496.60	-0.200
496.94	-0.195
497.28	-0.208
497.62	-0.206
497.97	-0.215
498.31	-0.210
498.65	-0.230
498.99	-0.241
499.33	-0.251
499.68	-0.260
500.02	-0.263
500.36	-0.285
500.70	-0.309
501.04	-0.314
501.39	-0.338
501.73	-0.332
502.07	-0.333
502.41	-0.324
502.75	-0.324
503.09	-0.318
503.44	-0.330
503.78	-0.330
504.12	-0.322
504.46	-0.298
504.80	-0.288
505.14	-0.287
505.49	-0.278
505.83	-0.269
506.17	-0.257
506.51	-0.255
506.85	-0.255
507.19	-0.240
507.53	-0.237
507.87	-0.238
508.22	-0.235
508.56	-0.249
508.90	-0.243
509.24	-0.250
509.58	-0.258
509.92	-0.270
510.26	-0.277
510.60	-0.270
510.94	-0.280
511.28	-0.278
511.63	-0.262
511.97	-0.274
512.31	-0.273
512.65	-0.269
512.99	-0.268
513.33	-0.263
513.67	-0.256
514.01	-0.224
514.35	-0.207
514.69	-0.184
515.03	-0.167
515.37	-0.161
515.71	-0.146
516.05	-0.134
516.39	-0.124
516.73	-0.109
517.07	-0.104
517.41	-0.093
517.75	-0.110
518.09	-0.128
518.43	-0.143
518.77	-0.171
519.11	-0.184
519.45	-0.194
519.79	-0.208
520.13	-0.224
520.47	-0.248
520.81	-0.246
521.15	-0.251
521.49	-0.240
521.83	-0.235
522.17	-0.213
522.51	-0.181
522.85	-0.163
523.19	-0.129
523.53	-0.071
523.87	-0.029
524.21	0.021
524.55	0.050
524.89	0.080
525.23	0.115
525.57	0.154
525.91	0.174
526.25	0.196
526.58	0.214
526.92	0.225
527.26	0.227
527.60	0.229
527.94	0.223
528.28	0.221
528.62	0.208
528.96	0.188
529.30	0.167
529.64	0.155
529.97	0.135
530.31	0.122
530.65	0.104
530.99	0.089
531.33	0.079
531.67	0.074
532.01	0.065
532.35	0.067
532.68	0.062
533.02	0.051
533.36	0.038
533.70	0.028
534.04	0.011
534.38	0.002
534.71	-0.019
535.05	-0.030
535.39	-0.054
535.73	-0.063
536.07	-0.077
536.41	-0.069
536.74	-0.053
537.08	-0.039
537.42	-0.023
537.76	0.003
538.10	0.024
538.43	0.052
538.77	0.066
539.11	0.087
539.45	0.102
539.79	0.124
540.12	0.130
540.46	0.134
540.80	0.125
541.14	0.106
541.47	0.092
541.81	0.076
542.15	0.051
542.49	0.033
542.82	0.011
543.16	-0.013
543.50	-0.054
543.84	-0.083
544.17	-0.115
544.51	-0.133
544.85	-0.140
545.18	-0.158
545.52	-0.173
545.86	-0.190
546.20	-0.213
546.53	-0.236
546.87	-0.270
547.21	-0.288
547.54	-0.329
547.88	-0.346
548.22	-0.362
548.55	-0.379
548.89	-0.382
549.23	-0.404
549.56	-0.422
549.90	-0.413
550.24	-0.413
550.57	-0.393
550.91	-0.392
551.25	-0.378
551.58	-0.370
551.92	-0.368
552.26	-0.380
552.59	-0.395
552.93	-0.412
553.27	-0.400
553.60	-0.430
553.94	-0.448
554.27	-0.469
554.61	-0.471
554.95	-0.466
555.28	-0.482
555.62	-0.493
555.95	-0.483
556.29	-0.498
556.63	-0.475
556.96	-0.470
557.30	-0.451
557.63	-0.444
557.97	-0.437
558.31	-0.426
558.64	-0.436
558.98	-0.432
559.31	-0.417
559.65	-0.415
559.98	-0.405
560.32	-0.402
560.65	-0.404
560.99	-0.402
561.33	-0.383
561.66	-0.372
562.00	-0.361
562.33	-0.340
562.67	-0.339
563.00	-0.326
563.34	-0.312
563.67	-0.302
564.01	-0.305
564.34	-0.309
564.68	-0.297
565.01	-0.310
565.35	-0.322
565.68	-0.317
566.02	-0.312
566.35	-0.305
566.69	-0.321
567.02	-0.311
567.36	-0.291
567.69	-0.279
568.03	-0.262
568.36	-0.256
568.69	-0.242
569.03	-0.216
569.36	-0.217
569.70	-0.225
570.03	-0.215
570.37	-0.204
570.70	-0.197
571.04	-0.200
571.37	-0.198
571.70	-0.203
572.04	-0.203
572.37	-0.203
572.71	-0.203
573.04	-0.198
573.37	-0.182
573.71	-0.186
574.04	-0.197
574.38	-0.218
574.71	-0.230
575.04	-0.241
575.38	-0.262
575.71	-0.276
576.05	-0.284
576.38	-0.319
576.71	-0.359
577.05	-0.396
577.38	-0.403
577.71	-0.400
578.05	-0.419
578.38	-0.428
578.71	-0.435
579.05	-0.442
579.38	-0.436
579.71	-0.465
580.05	-0.466
580.38	-0.461
580.71	-0.469
581.05	-0.501
581.38	-0.524
581.71	-0.532
582.05	-0.557
582.38	-0.551
582.71	-0.529
583.04	-0.568
583.38	-0.546
583.71	-0.536
584.04	-0.528
584.38	-0.507
584.71	-0.487
585.04	-0.489
585.37	-0.467
585.71	-0.452
586.04	-0.447
586.37	-0.449
586.70	-0.429
587.04	-0.439
587.37	-0.443
587.70	-0.435
588.03	-0.436
588.37	-0.447
588.70	-0.436
589.03	-0.437
589.36	-0.442
589.69	-0.487
590.03	-0.503
590.36	-0.511
590.69	-0.500
591.02	-0.513
591.35	-0.544
591.69	-0.560
592.02	-0.534
592.35	-0.550
592.68	-0.563
593.01	-0.555
593.35	-0.517
593.68	-0.508
594.01	-0.503
594.34	-0.503
594.67	-0.480
595.00	-0.463
595.34	-0.467
595.67	-0.494
596.00	-0.490
596.33	-0.497
596.66	-0.531
596.99	-0.545
597.32	-0.556
597.65	-0.563
597.99	-0.601
598.32	-0.648
598.65	-0.664
598.98	-0.688
599.31	-0.710
599.64	-0.714
599.97	-0.701
600.30	-0.693
600.63	-0.687
600.96	-0.688
601.30	-0.665
601.63	-0.648
601.96	-0.622
602.29	-0.628
602.62	-0.592
602.95	-0.577
603.28	-0.584
603.61	-0.595
603.94	-0.606
604.27	-0.624
604.60	-0.644
604.93	-0.701
605.26	-0.708
605.59	-0.742
605.92	-0.752
606.25	-0.792
606.58	-0.808
606.91	-0.820
607.24	-0.812
607.57	-0.802
607.90	-0.807
608.23	-0.821
608.56	-0.810
608.89	-0.840
609.22	-0.846
609.55	-0.873
609.88	-0.912
610.21	-0.946
610.54	-0.986
610.87	-1.054
611.20	-1.101
611.53	-1.157
611.86	-1.186
612.19	-1.223
612.52	-1.260
612.85	-1.287
613.18	-1.301
613.51	-1.323
613.84	-1.337
614.17	-1.327
614.49	-1.322
614.82	-1.313
615.15	-1.290
615.48	-1.315
615.81	-1.320
616.14	-1.305
616.47	-1.311
616.80	-1.320
617.13	-1.327
617.46	-1.324
617.78	-1.363
618.11	-1.369
618.44	-1.375
618.77	-1.402
619.10	-1.382
619.43	-1.390
619.76	-1.400
620.09	-1.410
620.41	-1.406
620.74	-1.365
621.07	-1.382
621.40	-1.398
621.73	-1.385
622.06	-1.406
622.38	-1.411
622.71	-1.425
623.04	-1.428
623.37	-1.412
623.70	-1.396
624.02	-1.392
624.35	-1.388
624.68	-1.354
625.01	-1.284
625.34	-1.274
625.66	-1.234
625.99	-1.217
626.32	-1.192
626.65	-1.192
626.98	-1.201
627.30	-1.222
627.63	-1.227
627.96	-1.251
628.29	-1.304
628.61	-1.360
628.94	-1.385
629.27	-1.446
629.60	-1.434
629.92	-1.473
630.25	-1.451
630.58	-1.470
630.91	-1.456
631.23	-1.470
631.56	-1.473
631.89	-1.434
632.21	-1.417
632.54	-1.429
632.87	-1.410
633.19	-1.460
633.52	-1.476
633.85	-1.512
634.18	-1.546
634.50	-1.560
634.83	-1.584
635.16	-1.584
635.48	-1.610
635.81	-1.650
636.14	-1.673
636.46	-1.718
636.79	-1.716
637.11	-1.706
637.44	-1.715
637.77	-1.714
638.09	-1.775
638.42	-1.798
638.75	-1.829
639.07	-1.864
639.40	-1.890
639.73	-1.905
640.05	-1.892
640.38	-1.902
640.70	-1.923
641.03	-1.929
641.36	-1.928
641.68	-1.927
642.01	-1.931
642.33	-1.918
642.66	-1.879
642.98	-1.849
643.31	-1.844
643.64	-1.831
643.96	-1.830
644.29	-1.818
644.61	-1.808
644.94	-1.788
