OOIBase32 Version 2.0.0.6 Data File
++++++++++++++++++++++++++++++++++++
Date: 01-20-2012, 22:22:33
User: Valued Ocean Optics Customer
Spectrometer Serial Number: USB2E2917
Spectrometer Channel: Master
Integration Time (msec): 4
Spectra Averaged: 10
Boxcar Smoothing: 5
Correct for Electrical Dark: Enabled
Time Normalized: Disabled
Dual-beam Reference: Disabled
Reference Channel: Master
Temperature: Not acquired
Spectrometer Type: S2000
ADC Type: USB2000
Number of Pixels in File: 2048
Graph Title: 
>>>>>Begin Spectral Data<<<<<
180.30	0.000
180.67	0.000
181.03	42.174
181.40	23.319
181.77	22.280
182.14	140.013
182.51	64.431
182.88	215.271
183.25	1.241
183.62	40.366
183.99	117.969
184.36	123.531
184.73	120.334
185.10	254.415
185.46	-275.906
185.83	70.808
186.20	-5.986
186.57	61.649
186.94	20.430
187.31	61.795
187.68	-4022.814
188.05	-112.766
188.42	-60.976
188.78	24.145
189.15	16.549
189.52	4.738
189.89	-36.246
190.26	-17.140
190.63	-2.726
191.00	-5.658
191.37	-21.540
191.73	-31.669
192.10	-41.877
192.47	2.618
192.84	-16.460
193.21	-17.727
193.58	-8.621
193.94	-2.085
194.31	8.397
194.68	18.914
195.05	-13.435
195.42	-0.981
195.79	5.971
196.15	7.240
196.52	-3.431
196.89	-38.568
197.26	-29.346
197.63	-12.544
198.00	-2.726
198.36	-12.433
198.73	-28.816
199.10	-14.304
199.47	-2.341
199.84	1.421
200.20	5.274
200.57	7.396
200.94	4.349
201.31	1.153
201.68	-19.474
202.04	-9.208
202.41	-11.811
202.78	-3.133
203.15	-2.278
203.51	-7.008
203.88	-6.271
204.25	-11.806
204.62	-12.063
204.98	-0.124
205.35	-7.129
205.72	13.255
206.09	-10.855
206.46	-1.884
206.82	-15.213
207.19	-7.576
207.56	-16.438
207.92	-15.278
208.29	-9.879
208.66	-25.351
209.03	-34.620
209.39	-16.998
209.76	-21.823
210.13	4.096
210.50	7.243
210.86	16.996
211.23	25.009
211.60	23.452
211.96	16.467
212.33	26.310
212.70	28.315
213.07	35.338
213.43	33.861
213.80	36.373
214.17	38.575
214.53	45.807
214.90	31.310
215.27	27.947
215.63	30.827
216.00	35.261
216.37	37.754
216.74	34.254
217.10	37.217
217.47	25.915
217.84	18.978
218.20	15.747
218.57	3.291
218.94	10.384
219.30	0.780
219.67	0.770
220.04	0.264
220.40	-6.266
220.77	-2.963
221.13	2.935
221.50	10.994
221.87	13.813
222.23	10.108
222.60	10.089
222.97	13.785
223.33	18.741
223.70	16.816
224.07	15.705
224.43	13.824
224.80	11.475
225.16	7.400
225.53	6.076
225.90	7.560
226.26	8.950
226.63	8.666
226.99	7.309
227.36	7.065
227.73	7.793
228.09	8.535
228.46	9.223
228.82	9.645
229.19	9.473
229.56	9.509
229.92	8.399
230.29	7.524
230.65	7.722
231.02	7.929
231.38	7.213
231.75	5.459
232.12	4.354
232.48	3.943
232.85	3.759
233.21	4.180
233.58	2.708
233.94	2.896
234.31	2.981
234.68	2.130
235.04	2.331
235.41	1.639
235.77	3.378
236.14	2.626
236.50	1.589
236.87	2.197
237.23	3.065
237.60	4.749
237.96	5.584
238.33	6.044
238.69	6.607
239.06	6.286
239.42	7.195
239.79	6.957
240.15	7.368
240.52	7.726
240.88	7.645
241.25	7.513
241.61	6.833
241.98	6.434
242.34	6.205
242.71	5.781
243.07	5.606
243.44	5.203
243.80	5.270
244.17	5.016
244.53	4.668
244.90	4.522
245.26	4.663
245.63	4.914
245.99	4.856
246.36	4.913
246.72	4.994
247.09	5.131
247.45	5.107
247.81	4.783
248.18	4.978
248.54	5.043
248.91	5.175
249.27	5.141
249.64	5.230
250.00	5.283
250.36	5.325
250.73	5.330
251.09	5.175
251.46	5.538
251.82	5.725
252.19	5.740
252.55	5.800
252.91	5.905
253.28	5.691
253.64	5.524
254.01	5.856
254.37	5.506
254.73	5.277
255.10	5.359
255.46	4.803
255.83	4.814
256.19	4.902
256.55	4.945
256.92	4.933
257.28	5.056
257.65	5.057
258.01	4.898
258.37	4.831
258.74	4.859
259.10	4.850
259.46	5.025
259.83	4.976
260.19	4.732
260.55	4.755
260.92	4.779
261.28	4.875
261.64	4.916
262.01	4.952
262.37	5.354
262.73	5.601
263.10	5.501
263.46	5.591
263.82	5.714
264.19	5.812
264.55	5.899
264.91	6.112
265.28	5.842
265.64	5.762
266.00	5.698
266.37	5.569
266.73	5.567
267.09	5.749
267.46	5.403
267.82	5.297
268.18	5.250
268.54	5.012
268.91	4.488
269.27	4.433
269.63	4.295
270.00	4.136
270.36	4.086
270.72	3.806
271.08	3.581
271.45	3.667
271.81	3.734
272.17	3.887
272.53	4.022
272.90	4.252
273.26	4.055
273.62	4.195
273.98	4.510
274.35	4.445
274.71	4.619
275.07	4.693
275.43	4.729
275.80	4.808
276.16	4.587
276.52	4.495
276.88	4.308
277.25	4.544
277.61	4.465
277.97	4.238
278.33	4.203
278.69	4.146
279.06	4.023
279.42	3.951
279.78	3.973
280.14	4.162
280.50	4.218
280.87	4.291
281.23	4.288
281.59	4.350
281.95	4.255
282.31	4.234
282.68	4.274
283.04	4.484
283.40	4.452
283.76	4.468
284.12	4.319
284.48	4.192
284.85	4.149
285.21	4.109
285.57	4.007
285.93	4.067
286.29	4.131
286.65	4.176
287.02	4.123
287.38	4.155
287.74	4.101
288.10	4.149
288.46	4.162
288.82	4.262
289.18	4.309
289.54	4.430
289.91	4.415
290.27	4.354
290.63	4.458
290.99	4.492
291.35	4.537
291.71	4.625
292.07	4.778
292.43	4.908
292.79	4.754
293.16	4.716
293.52	4.698
293.88	4.908
294.24	5.102
294.60	4.934
294.96	4.931
295.32	4.993
295.68	4.917
296.04	4.871
296.40	4.933
296.76	5.003
297.12	5.102
297.49	5.100
297.85	5.031
298.21	4.953
298.57	5.309
298.93	5.379
299.29	5.486
299.65	5.598
300.01	5.692
300.37	5.798
300.73	5.957
301.09	6.026
301.45	6.084
301.81	6.292
302.17	6.388
302.53	6.299
302.89	6.390
303.25	6.348
303.61	6.389
303.97	6.469
304.33	6.401
304.69	6.522
305.05	6.461
305.41	6.459
305.77	6.345
306.13	6.293
306.49	6.167
306.85	6.095
307.21	6.228
307.57	6.215
307.93	6.246
308.29	6.363
308.65	6.412
309.01	6.582
309.37	6.729
309.73	6.754
310.09	6.867
310.45	6.908
310.81	6.995
311.17	6.911
311.53	7.053
311.89	7.142
312.25	7.151
312.61	7.081
312.96	7.076
313.32	7.062
313.68	6.999
314.04	6.983
314.40	7.027
314.76	7.098
315.12	7.172
315.48	7.175
315.84	7.080
316.20	7.050
316.56	7.090
316.92	7.147
317.27	7.093
317.63	7.242
317.99	7.224
318.35	7.241
318.71	7.258
319.07	7.329
319.43	7.267
319.79	7.311
320.15	7.329
320.50	7.367
320.86	7.315
321.22	7.381
321.58	7.389
321.94	7.397
322.30	7.412
322.66	7.410
323.01	7.433
323.37	7.656
323.73	7.678
324.09	7.691
324.45	7.796
324.81	7.979
325.17	8.062
325.52	8.071
325.88	8.168
326.24	8.278
326.60	8.361
326.96	8.387
327.31	8.282
327.67	8.444
328.03	8.662
328.39	8.708
328.75	8.694
329.11	8.796
329.46	8.989
329.82	9.106
330.18	9.253
330.54	9.282
330.90	9.420
331.25	9.349
331.61	9.272
331.97	9.221
332.33	9.164
332.68	9.101
333.04	9.013
333.40	9.018
333.76	9.048
334.11	8.911
334.47	8.882
334.83	8.866
335.19	8.941
335.54	9.034
335.90	9.085
336.26	9.187
336.62	9.227
336.97	9.199
337.33	9.155
337.69	9.060
338.05	9.185
338.40	9.260
338.76	9.250
339.12	9.345
339.48	9.245
339.83	9.276
340.19	9.196
340.55	9.316
340.90	9.396
341.26	9.414
341.62	9.482
341.97	9.503
342.33	9.485
342.69	9.476
343.04	9.431
343.40	9.542
343.76	9.497
344.12	9.511
344.47	9.403
344.83	9.385
345.19	9.405
345.54	9.441
345.90	9.423
346.26	9.446
346.61	9.398
346.97	9.480
347.32	9.442
347.68	9.436
348.04	9.519
348.39	9.529
348.75	9.474
349.11	9.460
349.46	9.446
349.82	9.420
350.18	9.382
350.53	9.461
350.89	9.459
351.24	9.426
351.60	9.395
351.96	9.332
352.31	9.374
352.67	9.451
353.02	9.375
353.38	9.298
353.74	9.297
354.09	9.292
354.45	9.326
354.80	9.227
355.16	9.274
355.52	9.313
355.87	9.358
356.23	9.292
356.58	9.277
356.94	9.325
357.29	9.430
357.65	9.449
358.00	9.408
358.36	9.372
358.72	9.445
359.07	9.460
359.43	9.418
359.78	9.398
360.14	9.434
360.49	9.412
360.85	9.408
361.20	9.377
361.56	9.362
361.91	9.365
362.27	9.351
362.62	9.286
362.98	9.235
363.33	9.251
363.69	9.250
364.04	9.203
364.40	9.224
364.75	9.291
365.11	9.287
365.46	9.284
365.82	9.358
366.17	9.389
366.53	9.439
366.88	9.461
367.24	9.505
367.59	9.513
367.95	9.576
368.30	9.648
368.66	9.619
369.01	9.612
369.37	9.655
369.72	9.643
370.08	9.682
370.43	9.707
370.78	9.722
371.14	9.747
371.49	9.711
371.85	9.735
372.20	9.770
372.56	9.821
372.91	9.853
373.26	9.842
373.62	9.869
373.97	9.842
374.33	9.867
374.68	9.938
375.03	9.990
375.39	10.047
375.74	10.046
376.10	10.082
376.45	10.066
376.80	10.140
377.16	10.181
377.51	10.203
377.87	10.274
378.22	10.352
378.57	10.377
378.93	10.452
379.28	10.562
379.63	10.675
379.99	10.691
380.34	10.750
380.70	10.843
381.05	10.933
381.40	11.051
381.76	11.126
382.11	11.183
382.46	11.295
382.82	11.342
383.17	11.424
383.52	11.479
383.88	11.582
384.23	11.652
384.58	11.675
384.94	11.675
385.29	11.698
385.64	11.746
385.99	11.781
386.35	11.756
386.70	11.782
387.05	11.777
387.41	11.770
387.76	11.844
388.11	11.913
388.47	11.975
388.82	12.080
389.17	12.161
389.52	12.224
389.88	12.259
390.23	12.385
390.58	12.448
390.93	12.556
391.29	12.652
391.64	12.648
391.99	12.702
392.34	12.735
392.70	12.815
393.05	12.817
393.40	12.846
393.75	12.903
394.11	12.886
394.46	12.904
394.81	12.912
395.16	12.965
395.52	12.983
395.87	12.991
396.22	12.978
396.57	12.946
396.92	12.965
397.28	12.982
397.63	12.984
397.98	12.991
398.33	12.994
398.68	12.995
399.04	12.984
399.39	12.972
399.74	12.974
400.09	13.016
400.44	13.072
400.80	13.139
401.15	13.162
401.50	13.216
401.85	13.276
402.20	13.324
402.55	13.350
402.90	13.384
403.26	13.465
403.61	13.545
403.96	13.610
404.31	13.653
404.66	13.675
405.01	13.697
405.36	13.734
405.72	13.785
406.07	13.790
406.42	13.848
406.77	13.901
407.12	13.941
407.47	13.980
407.82	13.982
408.17	14.020
408.53	14.047
408.88	14.070
409.23	14.093
409.58	14.082
409.93	14.149
410.28	14.187
410.63	14.162
410.98	14.188
411.33	14.165
411.68	14.207
412.03	14.189
412.38	14.220
412.73	14.300
413.09	14.345
413.44	14.397
413.79	14.438
414.14	14.468
414.49	14.559
414.84	14.607
415.19	14.695
415.54	14.746
415.89	14.806
416.24	14.860
416.59	14.880
416.94	14.920
417.29	14.967
417.64	15.016
417.99	15.058
418.34	15.095
418.69	15.134
419.04	15.158
419.39	15.188
419.74	15.238
420.09	15.279
420.44	15.321
420.79	15.357
421.14	15.366
421.49	15.392
421.84	15.418
422.19	15.417
422.54	15.422
422.89	15.450
423.24	15.478
423.59	15.480
423.94	15.469
424.29	15.464
424.64	15.461
424.99	15.500
425.34	15.476
425.68	15.450
426.03	15.506
426.38	15.503
426.73	15.519
427.08	15.520
427.43	15.501
427.78	15.518
428.13	15.557
428.48	15.596
428.83	15.611
429.18	15.673
429.53	15.728
429.87	15.734
430.22	15.778
430.57	15.799
430.92	15.826
431.27	15.880
431.62	15.937
431.97	15.956
432.32	15.977
432.67	15.991
433.01	15.994
433.36	16.006
433.71	16.016
434.06	16.014
434.41	16.022
434.76	16.034
435.11	16.049
435.45	16.057
435.80	16.091
436.15	16.104
436.50	16.094
436.85	16.114
437.20	16.150
437.54	16.161
437.89	16.179
438.24	16.196
438.59	16.203
438.94	16.218
439.29	16.218
439.63	16.192
439.98	16.177
440.33	16.209
440.68	16.208
441.03	16.159
441.37	16.145
441.72	16.174
442.07	16.189
442.42	16.164
442.76	16.159
443.11	16.163
443.46	16.193
443.81	16.218
444.16	16.222
444.50	16.205
444.85	16.218
445.20	16.248
445.55	16.210
445.89	16.189
446.24	16.190
446.59	16.175
446.94	16.147
447.28	16.097
447.63	16.060
447.98	16.012
448.32	16.019
448.67	15.989
449.02	15.956
449.37	15.966
449.71	15.938
450.06	15.948
450.41	15.936
450.75	15.972
451.10	15.987
451.45	15.980
451.79	16.006
452.14	16.003
452.49	16.037
452.84	16.029
453.18	16.042
453.53	16.039
453.88	16.054
454.22	16.074
454.57	16.051
454.92	16.060
455.26	16.085
455.61	16.127
455.95	16.169
456.30	16.211
456.65	16.231
456.99	16.236
457.34	16.281
457.69	16.302
458.03	16.330
458.38	16.361
458.73	16.379
459.07	16.389
459.42	16.372
459.76	16.359
460.11	16.332
460.46	16.312
460.80	16.315
461.15	16.275
461.49	16.248
461.84	16.220
462.19	16.182
462.53	16.184
462.88	16.181
463.22	16.149
463.57	16.153
463.91	16.140
464.26	16.157
464.61	16.169
464.95	16.200
465.30	16.210
465.64	16.199
465.99	16.224
466.33	16.213
466.68	16.216
467.02	16.241
467.37	16.232
467.71	16.229
468.06	16.232
468.41	16.230
468.75	16.222
469.10	16.192
469.44	16.203
469.79	16.154
470.13	16.130
470.48	16.094
470.82	16.080
471.17	16.073
471.51	16.075
471.86	16.052
472.20	16.019
472.55	16.016
472.89	16.015
473.23	15.984
473.58	16.014
473.92	16.042
474.27	16.091
474.61	16.093
474.96	16.095
475.30	16.072
475.65	16.102
475.99	16.126
476.34	16.155
476.68	16.181
477.02	16.212
477.37	16.245
477.71	16.277
478.06	16.335
478.40	16.451
478.75	16.629
479.09	16.864
479.43	17.107
479.78	17.394
480.12	17.699
480.47	18.034
480.81	18.380
481.15	18.729
481.50	19.063
481.84	19.467
482.19	19.895
482.53	20.270
482.87	20.521
483.22	20.580
483.56	20.453
483.90	20.192
484.25	19.826
484.59	19.398
484.94	19.060
485.28	18.796
485.62	18.409
485.97	17.978
486.31	17.577
486.65	17.295
487.00	17.182
487.34	17.205
487.68	17.318
488.03	17.516
488.37	17.746
488.71	17.831
489.06	17.814
489.40	17.800
489.74	17.773
490.09	17.747
490.43	17.696
490.77	17.649
491.11	17.614
491.46	17.569
491.80	17.515
492.14	17.458
492.49	17.408
492.83	17.340
493.17	17.281
493.51	17.244
493.86	17.194
494.20	17.179
494.54	17.159
494.88	17.160
495.23	17.188
495.57	17.221
495.91	17.260
496.25	17.275
496.60	17.301
496.94	17.330
497.28	17.345
497.62	17.373
497.97	17.381
498.31	17.387
498.65	17.392
498.99	17.409
499.33	17.414
499.68	17.421
500.02	17.465
500.36	17.484
500.70	17.523
501.04	17.578
501.39	17.611
501.73	17.642
502.07	17.694
502.41	17.728
502.75	17.747
503.09	17.784
503.44	17.829
503.78	17.868
504.12	17.907
504.46	17.941
504.80	17.967
505.14	18.011
505.49	18.069
505.83	18.112
506.17	18.182
506.51	18.257
506.85	18.331
507.19	18.377
507.53	18.420
507.87	18.474
508.22	18.497
508.56	18.521
508.90	18.551
509.24	18.576
509.58	18.602
509.92	18.608
510.26	18.635
510.60	18.640
510.94	18.684
511.28	18.713
511.63	18.747
511.97	18.813
512.31	18.879
512.65	18.928
512.99	18.995
513.33	19.107
513.67	19.219
514.01	19.308
514.35	19.420
514.69	19.493
515.03	19.590
515.37	19.671
515.71	19.764
516.05	19.840
516.39	19.933
516.73	19.981
517.07	20.033
517.41	20.067
517.75	20.102
518.09	20.108
518.43	20.137
518.77	20.153
519.11	20.179
519.45	20.199
519.79	20.236
520.13	20.277
520.47	20.353
520.81	20.409
521.15	20.510
521.49	20.597
521.83	20.720
522.17	20.842
522.51	20.977
522.85	21.135
523.19	21.315
523.53	21.533
523.87	21.795
524.21	22.066
524.55	22.312
524.89	22.539
525.23	22.752
525.57	22.934
525.91	23.123
526.25	23.286
526.58	23.429
526.92	23.561
527.26	23.669
527.60	23.741
527.94	23.771
528.28	23.800
528.62	23.828
528.96	23.857
529.30	23.869
529.64	23.874
529.97	23.887
530.31	23.905
530.65	23.910
530.99	23.926
531.33	23.957
531.67	24.025
532.01	24.112
532.35	24.167
532.68	24.216
533.02	24.305
533.36	24.356
533.70	24.399
534.04	24.441
534.38	24.480
534.71	24.534
535.05	24.596
535.39	24.659
535.73	24.703
536.07	24.826
536.41	24.989
536.74	25.144
537.08	25.324
537.42	25.554
537.76	25.763
538.10	25.998
538.43	26.199
538.77	26.401
539.11	26.584
539.45	26.756
539.79	26.890
540.12	27.001
540.46	27.097
540.80	27.174
541.14	27.228
541.47	27.284
541.81	27.344
542.15	27.404
542.49	27.449
542.82	27.489
543.16	27.540
543.50	27.582
543.84	27.655
544.17	27.727
544.51	27.809
544.85	27.915
545.18	28.019
545.52	28.104
545.86	28.215
546.20	28.293
546.53	28.391
546.87	28.483
547.21	28.613
547.54	28.685
547.88	28.807
548.22	28.965
548.55	29.075
548.89	29.208
549.23	29.342
549.56	29.485
549.90	29.614
550.24	29.740
550.57	29.866
550.91	29.990
551.25	30.152
551.58	30.258
551.92	30.349
552.26	30.469
552.59	30.599
552.93	30.734
553.27	30.807
553.60	30.963
553.94	31.098
554.27	31.227
554.61	31.385
554.95	31.513
555.28	31.666
555.62	31.820
555.95	31.947
556.29	32.075
556.63	32.175
556.96	32.325
557.30	32.430
557.63	32.577
557.97	32.700
558.31	32.755
558.64	32.886
558.98	32.989
559.31	33.106
559.65	33.245
559.98	33.355
560.32	33.495
560.65	33.638
560.99	33.722
561.33	33.803
561.66	33.959
562.00	34.143
562.33	34.244
562.67	34.400
563.00	34.532
563.34	34.637
563.67	34.753
564.01	34.878
564.34	34.939
564.68	35.094
565.01	35.237
565.35	35.320
565.68	35.389
566.02	35.522
566.35	35.624
566.69	35.734
567.02	35.837
567.36	35.958
567.69	36.060
568.03	36.193
568.36	36.277
568.69	36.359
569.03	36.430
569.36	36.530
569.70	36.619
570.03	36.711
570.37	36.788
570.70	36.897
571.04	36.998
571.37	37.103
571.70	37.220
572.04	37.309
572.37	37.391
572.71	37.511
573.04	37.588
573.37	37.655
573.71	37.721
574.04	37.837
574.38	37.915
574.71	37.980
575.04	38.045
575.38	38.104
575.71	38.193
576.05	38.296
576.38	38.370
576.71	38.469
577.05	38.597
577.38	38.710
577.71	38.751
578.05	38.811
578.38	38.869
578.71	38.926
579.05	39.025
579.38	39.127
579.71	39.220
580.05	39.336
580.38	39.429
580.71	39.481
581.05	39.571
581.38	39.686
581.71	39.782
582.05	39.913
582.38	40.052
582.71	40.131
583.04	40.250
583.38	40.315
583.71	40.358
584.04	40.423
584.38	40.498
584.71	40.593
585.04	40.666
585.37	40.791
585.71	40.877
586.04	40.941
586.37	41.045
586.70	41.129
587.04	41.256
587.37	41.369
587.70	41.488
588.03	41.560
588.37	41.606
588.70	41.694
589.03	41.726
589.36	41.835
589.69	41.925
590.03	41.927
590.36	41.973
590.69	42.036
591.02	42.096
591.35	42.219
591.69	42.369
592.02	42.469
592.35	42.565
592.68	42.680
593.01	42.783
593.35	42.897
593.68	43.021
594.01	43.136
594.34	43.198
594.67	43.324
595.00	43.341
595.34	43.365
595.67	43.432
596.00	43.474
596.33	43.524
596.66	43.542
596.99	43.563
597.32	43.656
597.65	43.693
597.99	43.755
598.32	43.803
598.65	43.881
598.98	43.993
599.31	44.039
599.64	44.191
599.97	44.301
600.30	44.412
600.63	44.466
600.96	44.533
601.30	44.644
601.63	44.731
601.96	44.769
602.29	44.854
602.62	44.890
602.95	45.013
603.28	45.072
603.61	45.136
603.94	45.170
604.27	45.288
604.60	45.360
604.93	45.435
605.26	45.489
605.59	45.592
605.92	45.697
606.25	45.810
606.58	45.873
606.91	45.919
607.24	45.948
607.57	46.062
607.90	46.117
608.23	46.134
608.56	46.154
608.89	46.246
609.22	46.337
609.55	46.398
609.88	46.489
610.21	46.592
610.54	46.687
610.87	46.834
611.20	46.882
611.53	46.927
611.86	47.122
612.19	47.234
612.52	47.315
612.85	47.341
613.18	47.430
613.51	47.502
613.84	47.518
614.17	47.619
614.49	47.698
614.82	47.866
615.15	48.005
615.48	48.073
615.81	48.138
616.14	48.215
616.47	48.313
616.80	48.346
617.13	48.431
617.46	48.509
617.78	48.576
618.11	48.599
618.44	48.577
618.77	48.629
619.10	48.649
619.43	48.706
619.76	48.737
620.09	48.799
620.41	48.806
620.74	48.808
621.07	48.884
621.40	48.975
621.73	49.044
622.06	49.080
622.38	49.156
622.71	49.300
623.04	49.381
623.37	49.425
623.70	49.510
624.02	49.641
624.35	49.678
624.68	49.755
625.01	49.757
625.34	49.846
625.66	49.953
625.99	49.996
626.32	49.968
626.65	49.992
626.98	50.115
627.30	50.173
627.63	50.180
627.96	50.255
628.29	50.276
628.61	50.376
628.94	50.456
629.27	50.493
629.60	50.569
629.92	50.617
630.25	50.674
630.58	50.729
630.91	50.754
631.23	50.860
631.56	50.898
631.89	50.974
632.21	51.018
632.54	51.001
632.87	51.049
633.19	51.063
633.52	51.190
633.85	51.248
634.18	51.261
634.50	51.318
634.83	51.309
635.16	51.411
635.48	51.451
635.81	51.477
636.14	51.572
636.46	51.619
636.79	51.684
637.11	51.672
637.44	51.766
637.77	51.816
638.09	51.820
638.42	51.903
638.75	51.920
639.07	51.903
639.40	51.912
639.73	51.934
640.05	51.941
640.38	51.998
640.70	52.070
641.03	52.088
641.36	52.128
641.68	52.148
642.01	52.158
