OOIBase32 Version 2.0.0.6 Data File
++++++++++++++++++++++++++++++++++++
Date: 01-23-2012, 21:48:18
User: Valued Ocean Optics Customer
Spectrometer Serial Number: USB2E2917
Spectrometer Channel: Master
Integration Time (msec): 5
Spectra Averaged: 10
Boxcar Smoothing: 5
Correct for Electrical Dark: Enabled
Time Normalized: Disabled
Dual-beam Reference: Disabled
Reference Channel: Master
Temperature: Not acquired
Spectrometer Type: S2000
ADC Type: USB2000
Number of Pixels in File: 2048
Graph Title: 
>>>>>Begin Spectral Data<<<<<
180.30	0.000
180.67	0.000
181.03	99.423
181.40	-140.886
181.77	-4234.400
182.14	126.184
182.51	191.500
182.88	1911.017
183.25	237.246
183.62	33.801
183.99	29.147
184.36	87.465
184.73	167.287
185.10	-211.754
185.46	-6.451
185.83	119.752
186.20	-10.602
186.57	921.235
186.94	-136.782
187.31	56.710
187.68	-166.901
188.05	37.190
188.42	17.798
188.78	39.281
189.15	30.125
189.52	26.641
189.89	22.822
190.26	1.863
190.63	11.408
191.00	-9.239
191.37	-11.042
191.73	2.492
192.10	1.476
192.47	8.964
192.84	9.725
193.21	12.178
193.58	12.640
193.94	17.154
194.31	5.367
194.68	9.511
195.05	20.889
195.42	19.496
195.79	15.031
196.15	21.028
196.52	14.691
196.89	0.754
197.26	-5.408
197.63	-4.530
198.00	-14.436
198.36	3.206
198.73	-5.547
199.10	-5.624
199.47	3.332
199.84	5.774
200.20	4.864
200.57	-16.947
200.94	-14.768
201.31	-12.094
201.68	6.628
202.04	11.872
202.41	13.308
202.78	13.309
203.15	4.206
203.51	-25.955
203.88	-24.654
204.25	-25.295
204.62	-0.473
204.98	11.873
205.35	-1.174
205.72	-7.456
206.09	-13.136
206.46	-9.180
206.82	-3.687
207.19	4.891
207.56	20.582
207.92	21.291
208.29	21.655
208.66	27.862
209.03	39.439
209.39	41.259
209.76	29.403
210.13	37.166
210.50	41.636
210.86	35.124
211.23	33.148
211.60	24.954
211.96	26.297
212.33	26.154
212.70	30.117
213.07	17.096
213.43	23.297
213.80	30.494
214.17	17.351
214.53	12.036
214.90	13.626
215.27	6.497
215.63	3.147
216.00	-3.980
216.37	-0.791
216.74	-19.169
217.10	-8.571
217.47	-14.026
217.84	-16.938
218.20	0.589
218.57	7.875
218.94	10.184
219.30	8.041
219.67	18.806
220.04	29.865
220.40	27.985
220.77	33.343
221.13	16.164
221.50	10.383
221.87	9.602
222.23	12.159
222.60	6.139
222.97	-4.339
223.33	-4.914
223.70	-10.523
224.07	-6.933
224.43	-4.761
224.80	-0.834
225.16	4.016
225.53	7.253
225.90	4.147
226.26	1.426
226.63	0.254
226.99	3.562
227.36	5.572
227.73	6.617
228.09	1.938
228.46	2.127
228.82	2.534
229.19	1.022
229.56	-0.595
229.92	0.527
230.29	1.894
230.65	3.253
231.02	2.645
231.38	0.871
231.75	1.860
232.12	6.528
232.48	7.656
232.85	8.044
233.21	11.478
233.58	12.362
233.94	13.924
234.31	14.259
234.68	14.331
235.04	12.940
235.41	13.231
235.77	12.046
236.14	9.353
236.50	6.049
236.87	6.247
237.23	3.178
237.60	3.754
237.96	2.384
238.33	3.065
238.69	3.850
239.06	4.206
239.42	4.752
239.79	4.985
240.15	5.190
240.52	5.071
240.88	4.145
241.25	4.629
241.61	4.272
241.98	4.820
242.34	4.508
242.71	4.184
243.07	4.511
243.44	4.368
243.80	4.072
244.17	4.330
244.53	4.889
244.90	4.787
245.26	4.628
245.63	4.506
245.99	4.501
246.36	4.690
246.72	4.320
247.09	3.982
247.45	3.736
247.81	3.679
248.18	3.342
248.54	3.249
248.91	3.561
249.27	4.218
249.64	4.127
250.00	4.314
250.36	4.305
250.73	4.974
251.09	5.434
251.46	5.909
251.82	6.440
252.19	7.195
252.55	6.603
252.91	6.228
253.28	5.254
253.64	5.573
254.01	5.070
254.37	4.672
254.73	4.469
255.10	4.314
255.46	3.729
255.83	3.312
256.19	2.796
256.55	3.192
256.92	3.381
257.28	3.592
257.65	3.724
258.01	3.851
258.37	3.766
258.74	3.845
259.10	3.801
259.46	4.217
259.83	4.329
260.19	4.470
260.55	4.409
260.92	4.517
261.28	4.301
261.64	4.117
262.01	3.876
262.37	3.765
262.73	3.346
263.10	3.498
263.46	3.297
263.82	3.112
264.19	2.952
264.55	2.981
264.91	3.019
265.28	3.706
265.64	3.606
266.00	3.463
266.37	3.595
266.73	3.912
267.09	3.660
267.46	3.561
267.82	3.682
268.18	3.881
268.54	3.845
268.91	3.909
269.27	3.558
269.63	3.602
270.00	3.714
270.36	3.542
270.72	3.416
271.08	3.484
271.45	3.384
271.81	3.584
272.17	3.506
272.53	3.361
272.90	3.094
273.26	3.131
273.62	3.045
273.98	3.184
274.35	3.283
274.71	3.446
275.07	3.462
275.43	3.691
275.80	3.755
276.16	4.207
276.52	4.452
276.88	4.533
277.25	4.511
277.61	4.663
277.97	4.235
278.33	4.113
278.69	4.073
279.06	4.355
279.42	3.992
279.78	3.733
280.14	3.421
280.50	3.437
280.87	3.477
281.23	3.505
281.59	3.425
281.95	3.485
282.31	3.503
282.68	3.521
283.04	3.291
283.40	3.475
283.76	3.512
284.12	3.450
284.48	3.214
284.85	3.090
285.21	3.089
285.57	3.204
285.93	3.490
286.29	3.581
286.65	3.588
287.02	3.654
287.38	3.660
287.74	3.597
288.10	3.493
288.46	3.621
288.82	3.557
289.18	3.343
289.54	3.248
289.91	3.236
290.27	3.350
290.63	3.390
290.99	3.290
291.35	3.396
291.71	3.598
292.07	3.804
292.43	3.930
292.79	4.327
293.16	4.460
293.52	4.451
293.88	4.315
294.24	4.221
294.60	4.062
294.96	4.080
295.32	3.958
295.68	3.884
296.04	3.917
296.40	3.827
296.76	3.714
297.12	3.892
297.49	3.967
297.85	4.119
298.21	4.231
298.57	4.264
298.93	4.223
299.29	4.237
299.65	4.129
300.01	4.090
300.37	4.040
300.73	4.181
301.09	4.111
301.45	4.193
301.81	4.048
302.17	3.921
302.53	4.023
302.89	4.111
303.25	4.103
303.61	4.253
303.97	4.256
304.33	4.321
304.69	4.166
305.05	4.098
305.41	3.974
305.77	4.023
306.13	4.089
306.49	4.155
306.85	4.140
307.21	4.294
307.57	4.301
307.93	4.269
308.29	4.293
308.65	4.192
309.01	4.269
309.37	4.345
309.73	4.401
310.09	4.462
310.45	4.345
310.81	4.378
311.17	4.140
311.53	4.133
311.89	4.202
312.25	4.109
312.61	4.203
312.96	4.197
313.32	4.187
313.68	3.999
314.04	3.844
314.40	3.842
314.76	3.830
315.12	4.126
315.48	4.285
315.84	4.186
316.20	4.318
316.56	4.374
316.92	4.291
317.27	4.299
317.63	4.333
317.99	4.452
318.35	4.465
318.71	4.368
319.07	4.241
319.43	4.183
319.79	4.198
320.15	4.195
320.50	4.021
320.86	4.109
321.22	3.983
321.58	4.076
321.94	3.938
322.30	3.970
322.66	4.147
323.01	4.116
323.37	4.011
323.73	4.048
324.09	4.086
324.45	4.166
324.81	3.980
325.17	4.011
325.52	3.920
325.88	3.887
326.24	3.886
326.60	3.971
326.96	4.058
327.31	3.961
327.67	3.938
328.03	3.917
328.39	3.862
328.75	4.029
329.11	3.971
329.46	4.081
329.82	4.224
330.18	4.381
330.54	4.237
330.90	4.219
331.25	4.300
331.61	4.272
331.97	4.162
332.33	4.371
332.68	4.156
333.04	4.195
333.40	4.217
333.76	4.180
334.11	4.017
334.47	4.022
334.83	3.954
335.19	3.996
335.54	4.051
335.90	4.280
336.26	4.127
336.62	4.260
336.97	4.199
337.33	4.194
337.69	4.162
338.05	4.179
338.40	4.180
338.76	4.233
339.12	4.207
339.48	4.267
339.83	4.129
340.19	4.127
340.55	4.132
340.90	4.173
341.26	4.085
341.62	4.118
341.97	4.179
342.33	4.252
342.69	4.219
343.04	4.282
343.40	4.195
343.76	4.226
344.12	4.344
344.47	4.390
344.83	4.363
345.19	4.346
345.54	4.325
345.90	4.367
346.26	4.211
346.61	4.316
346.97	4.246
347.32	4.314
347.68	4.300
348.04	4.200
348.39	4.209
348.75	4.344
349.11	4.323
349.46	4.332
349.82	4.225
350.18	4.317
350.53	4.195
350.89	4.209
351.24	4.173
351.60	4.117
351.96	4.144
352.31	4.191
352.67	4.081
353.02	4.201
353.38	4.185
353.74	4.215
354.09	4.206
354.45	4.324
354.80	4.310
355.16	4.277
355.52	4.351
355.87	4.289
356.23	4.250
356.58	4.340
356.94	4.296
357.29	4.274
357.65	4.229
358.00	4.172
358.36	4.136
358.72	4.162
359.07	4.141
359.43	4.117
359.78	4.136
360.14	4.102
360.49	4.041
360.85	4.035
361.20	4.111
361.56	4.194
361.91	4.234
362.27	4.212
362.62	4.185
362.98	4.252
363.33	4.265
363.69	4.284
364.04	4.305
364.40	4.338
364.75	4.313
365.11	4.283
365.46	4.232
365.82	4.267
366.17	4.233
366.53	4.333
366.88	4.320
367.24	4.370
367.59	4.428
367.95	4.453
368.30	4.428
368.66	4.437
369.01	4.437
369.37	4.505
369.72	4.475
370.08	4.537
370.43	4.492
370.78	4.484
371.14	4.450
371.49	4.461
371.85	4.417
372.20	4.448
372.56	4.516
372.91	4.560
373.26	4.482
373.62	4.487
373.97	4.540
374.33	4.577
374.68	4.595
375.03	4.656
375.39	4.601
375.74	4.631
376.10	4.626
376.45	4.618
376.80	4.619
377.16	4.652
377.51	4.708
377.87	4.644
378.22	4.603
378.57	4.649
378.93	4.591
379.28	4.670
379.63	4.678
379.99	4.738
380.34	4.772
380.70	4.755
381.05	4.804
381.40	4.798
381.76	4.815
382.11	4.869
382.46	4.834
382.82	4.869
383.17	4.871
383.52	4.909
383.88	4.865
384.23	4.875
384.58	4.916
384.94	4.918
385.29	4.951
385.64	4.982
385.99	4.999
386.35	5.037
386.70	5.056
387.05	5.065
387.41	5.095
387.76	5.148
388.11	5.102
388.47	5.138
388.82	5.145
389.17	5.149
389.52	5.171
389.88	5.149
390.23	5.199
390.58	5.239
390.93	5.228
391.29	5.250
391.64	5.255
391.99	5.325
392.34	5.327
392.70	5.347
393.05	5.348
393.40	5.357
393.75	5.392
394.11	5.406
394.46	5.390
394.81	5.412
395.16	5.380
395.52	5.395
395.87	5.377
396.22	5.380
396.57	5.418
396.92	5.438
397.28	5.470
397.63	5.480
397.98	5.469
398.33	5.507
398.68	5.552
399.04	5.604
399.39	5.650
399.74	5.687
400.09	5.724
400.44	5.699
400.80	5.733
401.15	5.759
401.50	5.804
401.85	5.850
402.20	5.872
402.55	5.913
402.90	5.946
403.26	5.974
403.61	6.004
403.96	6.026
404.31	6.091
404.66	6.129
405.01	6.155
405.36	6.190
405.72	6.222
406.07	6.271
406.42	6.278
406.77	6.314
407.12	6.332
407.47	6.402
407.82	6.422
408.17	6.446
408.53	6.508
408.88	6.556
409.23	6.586
409.58	6.617
409.93	6.615
410.28	6.658
410.63	6.689
410.98	6.782
411.33	6.757
411.68	6.818
412.03	6.885
412.38	6.900
412.73	6.935
413.09	6.977
413.44	7.011
413.79	7.101
414.14	7.150
414.49	7.174
414.84	7.160
415.19	7.233
415.54	7.258
415.89	7.282
416.24	7.289
416.59	7.323
416.94	7.338
417.29	7.373
417.64	7.388
417.99	7.407
418.34	7.438
418.69	7.468
419.04	7.494
419.39	7.552
419.74	7.579
420.09	7.624
420.44	7.641
420.79	7.688
421.14	7.689
421.49	7.702
421.84	7.745
422.19	7.786
422.54	7.827
422.89	7.857
423.24	7.865
423.59	7.900
423.94	7.933
424.29	7.968
424.64	8.000
424.99	8.085
425.34	8.157
425.68	8.211
426.03	8.271
426.38	8.308
426.73	8.362
427.08	8.424
427.43	8.473
427.78	8.520
428.13	8.594
428.48	8.651
428.83	8.689
429.18	8.700
429.53	8.730
429.87	8.758
430.22	8.791
430.57	8.838
430.92	8.858
431.27	8.899
431.62	8.939
431.97	8.938
432.32	8.971
432.67	8.981
433.01	9.016
433.36	9.055
433.71	9.101
434.06	9.149
434.41	9.187
434.76	9.240
435.11	9.263
435.45	9.299
435.80	9.326
436.15	9.344
436.50	9.373
436.85	9.412
437.20	9.443
437.54	9.478
437.89	9.508
438.24	9.548
438.59	9.573
438.94	9.605
439.29	9.631
439.63	9.684
439.98	9.738
440.33	9.766
440.68	9.787
441.03	9.805
441.37	9.816
441.72	9.845
442.07	9.851
442.42	9.894
442.76	9.929
443.11	9.966
443.46	9.971
443.81	9.953
444.16	9.993
444.50	10.019
444.85	10.041
445.20	10.060
445.55	10.077
445.89	10.113
446.24	10.100
446.59	10.125
446.94	10.117
447.28	10.174
447.63	10.230
447.98	10.245
448.32	10.300
448.67	10.336
449.02	10.366
449.37	10.401
449.71	10.416
450.06	10.447
450.41	10.461
450.75	10.486
451.10	10.478
451.45	10.507
451.79	10.510
452.14	10.516
452.49	10.535
452.84	10.567
453.18	10.580
453.53	10.617
453.88	10.643
454.22	10.662
454.57	10.713
454.92	10.772
455.26	10.815
455.61	10.861
455.95	10.876
456.30	10.893
456.65	10.920
456.99	10.942
457.34	10.945
457.69	10.996
458.03	11.003
458.38	11.025
458.73	11.040
459.07	11.060
459.42	11.103
459.76	11.141
460.11	11.170
460.46	11.209
460.80	11.282
461.15	11.343
461.49	11.361
461.84	11.440
462.19	11.501
462.53	11.569
462.88	11.610
463.22	11.648
463.57	11.709
463.91	11.755
464.26	11.805
464.61	11.823
464.95	11.864
465.30	11.918
465.64	11.965
465.99	12.003
466.33	12.026
466.68	12.066
467.02	12.114
467.37	12.154
467.71	12.195
468.06	12.216
468.41	12.243
468.75	12.274
469.10	12.304
469.44	12.316
469.79	12.314
470.13	12.349
470.48	12.338
470.82	12.365
471.17	12.386
471.51	12.431
471.86	12.446
472.20	12.478
472.55	12.505
472.89	12.535
473.23	12.583
473.58	12.622
473.92	12.634
474.27	12.675
474.61	12.694
474.96	12.686
475.30	12.668
475.65	12.681
475.99	12.700
476.34	12.709
476.68	12.716
477.02	12.719
477.37	12.735
477.71	12.759
478.06	12.792
478.40	12.823
478.75	12.930
479.09	13.052
479.43	13.187
479.78	13.338
480.12	13.524
480.47	13.731
480.81	13.953
481.15	14.172
481.50	14.394
481.84	14.670
482.19	14.969
482.53	15.205
482.87	15.341
483.22	15.341
483.56	15.224
483.90	15.021
484.25	14.753
484.59	14.492
484.94	14.309
485.28	14.135
485.62	13.898
485.97	13.625
486.31	13.388
486.65	13.254
487.00	13.246
487.34	13.361
487.68	13.513
488.03	13.718
488.37	13.894
488.71	13.972
489.06	14.008
489.40	14.029
489.74	14.054
490.09	14.099
490.43	14.115
490.77	14.150
491.11	14.163
491.46	14.211
491.80	14.255
492.14	14.277
492.49	14.299
492.83	14.333
493.17	14.377
493.51	14.413
493.86	14.443
494.20	14.508
494.54	14.567
494.88	14.631
495.23	14.682
495.57	14.717
495.91	14.782
496.25	14.842
496.60	14.891
496.94	14.962
497.28	15.059
497.62	15.139
497.97	15.226
498.31	15.305
498.65	15.363
498.99	15.446
499.33	15.533
499.68	15.620
500.02	15.701
500.36	15.780
500.70	15.854
501.04	15.914
501.39	15.991
501.73	16.086
502.07	16.152
502.41	16.233
502.75	16.317
503.09	16.414
503.44	16.499
503.78	16.576
504.12	16.670
504.46	16.763
504.80	16.849
505.14	16.937
505.49	16.997
505.83	17.085
506.17	17.158
506.51	17.234
506.85	17.302
507.19	17.372
507.53	17.463
507.87	17.541
508.22	17.612
508.56	17.688
508.90	17.764
509.24	17.845
509.58	17.916
509.92	18.014
510.26	18.088
510.60	18.186
510.94	18.270
511.28	18.361
511.63	18.457
511.97	18.546
512.31	18.638
512.65	18.733
512.99	18.822
513.33	18.946
513.67	19.053
514.01	19.157
514.35	19.258
514.69	19.360
515.03	19.449
515.37	19.544
515.71	19.641
516.05	19.716
516.39	19.792
516.73	19.865
517.07	19.925
517.41	19.986
517.75	20.057
518.09	20.116
518.43	20.184
518.77	20.246
519.11	20.324
519.45	20.393
519.79	20.474
520.13	20.570
520.47	20.656
520.81	20.737
521.15	20.838
521.49	20.929
521.83	21.014
522.17	21.111
522.51	21.190
522.85	21.273
523.19	21.386
523.53	21.565
523.87	21.740
524.21	21.939
524.55	22.117
524.89	22.262
525.23	22.414
525.57	22.546
525.91	22.666
526.25	22.806
526.58	22.919
526.92	23.009
527.26	23.053
527.60	23.070
527.94	23.085
528.28	23.091
528.62	23.099
528.96	23.095
529.30	23.103
529.64	23.083
529.97	23.045
530.31	23.032
530.65	23.034
530.99	23.048
531.33	23.075
531.67	23.098
532.01	23.126
532.35	23.158
532.68	23.177
533.02	23.190
533.36	23.232
533.70	23.275
534.04	23.295
534.38	23.305
534.71	23.334
535.05	23.380
535.39	23.400
535.73	23.447
536.07	23.504
536.41	23.590
536.74	23.646
537.08	23.725
537.42	23.823
537.76	23.895
538.10	23.977
538.43	24.030
538.77	24.086
539.11	24.137
539.45	24.199
539.79	24.241
540.12	24.269
540.46	24.303
540.80	24.308
541.14	24.281
541.47	24.293
541.81	24.298
542.15	24.321
542.49	24.335
542.82	24.355
543.16	24.353
543.50	24.346
543.84	24.346
544.17	24.363
544.51	24.405
544.85	24.441
545.18	24.468
545.52	24.507
545.86	24.548
546.20	24.553
546.53	24.575
546.87	24.609
547.21	24.661
547.54	24.694
547.88	24.764
548.22	24.809
548.55	24.893
548.89	24.946
549.23	24.992
549.56	25.005
549.90	25.070
550.24	25.115
550.57	25.145
550.91	25.163
551.25	25.204
551.58	25.209
551.92	25.232
552.26	25.239
552.59	25.282
552.93	25.302
553.27	25.351
553.60	25.381
553.94	25.460
554.27	25.482
554.61	25.537
554.95	25.609
555.28	25.685
555.62	25.727
555.95	25.809
556.29	25.847
556.63	25.890
556.96	25.933
557.30	25.973
557.63	25.991
557.97	26.057
558.31	26.095
558.64	26.117
558.98	26.135
559.31	26.144
559.65	26.133
559.98	26.138
560.32	26.156
560.65	26.179
560.99	26.208
561.33	26.201
561.66	26.219
562.00	26.247
562.33	26.252
562.67	26.274
563.00	26.307
563.34	26.319
563.67	26.328
564.01	26.357
564.34	26.336
564.68	26.351
565.01	26.383
565.35	26.388
565.68	26.389
566.02	26.420
566.35	26.446
566.69	26.459
567.02	26.497
567.36	26.543
567.69	26.578
568.03	26.633
568.36	26.643
568.69	26.657
569.03	26.681
569.36	26.695
569.70	26.708
570.03	26.674
570.37	26.677
570.70	26.711
571.04	26.710
571.37	26.720
571.70	26.771
572.04	26.811
572.37	26.828
572.71	26.855
573.04	26.897
573.37	26.918
573.71	26.987
574.04	27.049
574.38	27.049
574.71	27.100
575.04	27.154
575.38	27.170
575.71	27.205
576.05	27.290
576.38	27.342
576.71	27.368
577.05	27.386
577.38	27.465
577.71	27.496
578.05	27.544
578.38	27.566
578.71	27.557
579.05	27.589
579.38	27.618
579.71	27.591
580.05	27.603
580.38	27.649
580.71	27.689
581.05	27.645
581.38	27.675
581.71	27.689
582.05	27.706
582.38	27.730
582.71	27.761
583.04	27.780
583.38	27.800
583.71	27.819
584.04	27.832
584.38	27.878
584.71	27.905
585.04	27.904
585.37	27.927
585.71	27.960
586.04	27.969
586.37	27.944
586.70	27.919
587.04	27.934
587.37	27.946
587.70	27.938
588.03	27.912
588.37	27.896
588.70	27.903
589.03	27.922
589.36	27.907
589.69	27.883
590.03	27.868
590.36	27.891
590.69	27.898
591.02	27.908
591.35	27.901
591.69	27.892
592.02	27.908
592.35	27.879
592.68	27.844
593.01	27.847
593.35	27.871
593.68	27.863
594.01	27.824
594.34	27.804
594.67	27.760
595.00	27.735
595.34	27.726
595.67	27.721
596.00	27.758
596.33	27.748
596.66	27.724
596.99	27.721
597.32	27.721
597.65	27.786
597.99	27.804
598.32	27.817
598.65	27.834
598.98	27.846
599.31	27.821
599.64	27.798
599.97	27.828
600.30	27.825
600.63	27.797
600.96	27.771
601.30	27.683
601.63	27.622
601.96	27.611
602.29	27.615
602.62	27.632
602.95	27.657
603.28	27.638
603.61	27.607
603.94	27.629
604.27	27.643
604.60	27.661
604.93	27.708
605.26	27.712
605.59	27.730
605.92	27.729
606.25	27.719
606.58	27.688
606.91	27.699
607.24	27.707
607.57	27.675
607.90	27.672
608.23	27.687
608.56	27.683
608.89	27.737
609.22	27.727
609.55	27.741
609.88	27.738
610.21	27.794
610.54	27.838
610.87	27.856
611.20	27.892
611.53	27.911
611.86	27.925
612.19	27.966
612.52	27.959
612.85	27.986
613.18	27.995
613.51	27.955
613.84	27.915
614.17	27.891
614.49	27.880
614.82	27.849
615.15	27.865
615.48	27.879
615.81	27.857
616.14	27.823
616.47	27.809
616.80	27.815
617.13	27.817
617.46	27.824
617.78	27.779
618.11	27.782
618.44	27.772
618.77	27.747
619.10	27.685
619.43	27.656
619.76	27.669
620.09	27.648
620.41	27.609
620.74	27.602
621.07	27.564
621.40	27.572
621.73	27.546
622.06	27.512
622.38	27.457
622.71	27.440
623.04	27.420
623.37	27.406
623.70	27.379
624.02	27.311
624.35	27.302
624.68	27.281
625.01	27.258
625.34	27.251
625.66	27.262
625.99	27.269
626.32	27.298
626.65	27.288
626.98	27.259
627.30	27.267
627.63	27.305
627.96	27.307
628.29	27.295
628.61	27.271
628.94	27.237
629.27	27.215
629.60	27.207
629.92	27.152
630.25	27.132
630.58	27.075
630.91	27.017
631.23	26.971
631.56	26.960
631.89	26.972
632.21	26.947
632.54	26.860
632.87	26.832
633.19	26.788
633.52	26.790
633.85	26.779
634.18	26.782
634.50	26.746
634.83	26.731
635.16	26.678
635.48	26.590
635.81	26.603
636.14	26.679
636.46	26.665
636.79	26.723
637.11	26.725
637.44	26.729
637.77	26.726
638.09	26.748
638.42	26.736
638.75	26.710
639.07	26.762
639.40	26.724
639.73	26.689
640.05	26.689
640.38	26.571
640.70	26.511
641.03	26.517
641.36	26.495
641.68	26.460
642.01	26.439
642.33	26.473
642.66	26.456
642.98	26.403
643.31	26.362
643.64	26.313
643.96	26.338
644.29	26.321
644.61	26.213
644.94	26.200
645.26	26.179
645.59	26.146
645.91	26.125
646.24	26.114
