OOIBase32 Version 2.0.0.6 Data File
++++++++++++++++++++++++++++++++++++
Date: 01-23-2012, 21:48:11
User: Valued Ocean Optics Customer
Spectrometer Serial Number: USB2E2917
Spectrometer Channel: Master
Integration Time (msec): 5
Spectra Averaged: 10
Boxcar Smoothing: 5
Correct for Electrical Dark: Enabled
Time Normalized: Disabled
Dual-beam Reference: Disabled
Reference Channel: Master
Temperature: Not acquired
Spectrometer Type: S2000
ADC Type: USB2000
Number of Pixels in File: 2048
Graph Title: 
>>>>>Begin Spectral Data<<<<<
180.30	0.000
180.67	0.000
181.03	181.432
181.40	-70.601
181.77	7433.800
182.14	-91.665
182.51	87.205
182.88	-438.665
183.25	17.077
183.62	53.638
183.99	54.500
184.36	74.789
184.73	42.352
185.10	-4.158
185.46	-87.635
185.83	29.078
186.20	-23.033
186.57	297.004
186.94	-16.962
187.31	52.920
187.68	30.555
188.05	12.626
188.42	8.549
188.78	18.631
189.15	13.479
189.52	4.448
189.89	6.401
190.26	-3.275
190.63	12.959
191.00	8.781
191.37	14.515
191.73	20.485
192.10	17.240
192.47	8.358
192.84	6.034
193.21	1.210
193.58	8.342
193.94	4.490
194.31	-4.613
194.68	-2.735
195.05	-11.247
195.42	-30.187
195.79	-44.389
196.15	-31.284
196.52	-21.081
196.89	-38.838
197.26	-35.047
197.63	-39.610
198.00	-36.653
198.36	-23.482
198.73	-21.441
199.10	-10.744
199.47	5.501
199.84	8.639
200.20	6.085
200.57	-11.221
200.94	6.227
201.31	-2.136
201.68	6.029
202.04	0.132
202.41	8.344
202.78	-4.722
203.15	-15.919
203.51	-47.664
203.88	-39.832
204.25	-43.061
204.62	-14.377
204.98	-9.020
205.35	0.892
205.72	0.911
206.09	17.047
206.46	30.398
206.82	46.094
207.19	50.174
207.56	47.430
207.92	51.255
208.29	58.928
208.66	52.716
209.03	40.165
209.39	29.938
209.76	20.407
210.13	9.782
210.50	-0.507
210.86	0.859
211.23	17.281
211.60	16.502
211.96	15.765
212.33	5.960
212.70	17.090
213.07	10.931
213.43	18.695
213.80	21.295
214.17	15.056
214.53	7.352
214.90	2.250
215.27	-1.742
215.63	-6.378
216.00	-10.051
216.37	-3.477
216.74	-30.379
217.10	-28.672
217.47	-41.654
217.84	-41.644
218.20	-18.175
218.57	-14.286
218.94	-11.011
219.30	-19.859
219.67	-18.077
220.04	-18.608
220.40	-19.371
220.77	-10.728
221.13	-10.955
221.50	-8.145
221.87	-4.190
222.23	-12.842
222.60	-10.041
222.97	-12.808
223.33	-11.193
223.70	-11.384
224.07	-6.202
224.43	-3.072
224.80	-0.655
225.16	2.498
225.53	4.803
225.90	-0.729
226.26	-1.266
226.63	-1.657
226.99	-0.945
227.36	-0.069
227.73	0.907
228.09	-2.282
228.46	-4.502
228.82	-2.776
229.19	-3.702
229.56	-6.697
229.92	-4.265
230.29	-2.456
230.65	-2.693
231.02	-2.899
231.38	-5.528
231.75	-5.893
232.12	-3.821
232.48	-1.449
232.85	-2.473
233.21	1.440
233.58	5.000
233.94	6.526
234.31	3.839
234.68	2.936
235.04	3.098
235.41	4.270
235.77	5.658
236.14	6.488
236.50	4.587
236.87	4.337
237.23	0.236
237.60	-0.657
237.96	-1.237
238.33	0.406
238.69	1.729
239.06	1.600
239.42	1.950
239.79	0.976
240.15	1.059
240.52	1.215
240.88	0.781
241.25	1.668
241.61	1.762
241.98	2.060
242.34	1.688
242.71	1.831
243.07	2.128
243.44	2.056
243.80	2.400
244.17	2.411
244.53	2.619
244.90	2.569
245.26	2.498
245.63	2.562
245.99	2.817
246.36	3.129
246.72	2.674
247.09	2.690
247.45	2.430
247.81	2.037
248.18	1.543
248.54	1.589
248.91	1.793
249.27	1.714
249.64	1.455
250.00	0.996
250.36	1.056
250.73	1.614
251.09	1.440
251.46	1.387
251.82	1.821
252.19	2.603
252.55	2.270
252.91	2.289
253.28	2.071
253.64	1.940
254.01	2.026
254.37	1.360
254.73	1.584
255.10	2.071
255.46	2.166
255.83	1.939
256.19	2.040
256.55	2.258
256.92	2.190
257.28	2.328
257.65	2.528
258.01	2.668
258.37	2.753
258.74	2.532
259.10	2.374
259.46	2.653
259.83	2.891
260.19	2.682
260.55	2.521
260.92	2.576
261.28	2.480
261.64	2.266
262.01	1.843
262.37	1.682
262.73	1.649
263.10	1.653
263.46	1.870
263.82	1.932
264.19	2.041
264.55	2.066
264.91	2.180
265.28	2.467
265.64	2.394
266.00	2.311
266.37	2.278
266.73	2.390
267.09	2.164
267.46	1.946
267.82	1.601
268.18	1.698
268.54	1.520
268.91	1.644
269.27	1.352
269.63	1.684
270.00	1.957
270.36	2.032
270.72	1.933
271.08	1.846
271.45	1.751
271.81	2.084
272.17	2.065
272.53	2.289
272.90	2.008
273.26	2.015
273.62	1.893
273.98	1.848
274.35	1.727
274.71	2.028
275.07	2.357
275.43	2.496
275.80	2.372
276.16	2.404
276.52	2.171
276.88	2.086
277.25	2.041
277.61	2.176
277.97	2.234
278.33	2.053
278.69	1.678
279.06	1.660
279.42	1.556
279.78	1.380
280.14	1.397
280.50	1.545
280.87	1.831
281.23	2.169
281.59	2.091
281.95	2.011
282.31	2.435
282.68	2.659
283.04	2.634
283.40	2.643
283.76	2.519
284.12	2.546
284.48	2.488
284.85	2.450
285.21	2.374
285.57	2.436
285.93	2.548
286.29	2.419
286.65	2.472
287.02	2.459
287.38	2.391
287.74	2.615
288.10	2.516
288.46	2.664
288.82	2.437
289.18	2.243
289.54	2.104
289.91	2.249
290.27	2.312
290.63	2.231
290.99	2.252
291.35	2.365
291.71	2.543
292.07	2.598
292.43	2.701
292.79	2.968
293.16	3.022
293.52	3.138
293.88	2.964
294.24	2.850
294.60	2.664
294.96	2.708
295.32	2.753
295.68	2.536
296.04	2.654
296.40	2.519
296.76	2.556
297.12	2.663
297.49	2.695
297.85	2.779
298.21	2.864
298.57	2.984
298.93	2.897
299.29	2.817
299.65	2.875
300.01	2.839
300.37	2.711
300.73	2.806
301.09	2.870
301.45	2.936
301.81	2.868
302.17	2.866
302.53	2.883
302.89	2.844
303.25	2.722
303.61	2.787
303.97	2.835
304.33	2.901
304.69	2.730
305.05	2.645
305.41	2.505
305.77	2.561
306.13	2.460
306.49	2.592
306.85	2.661
307.21	2.904
307.57	2.921
307.93	2.934
308.29	2.993
308.65	2.929
309.01	2.942
309.37	2.985
309.73	2.914
310.09	2.965
310.45	2.889
310.81	2.920
311.17	2.674
311.53	2.576
311.89	2.504
312.25	2.487
312.61	2.569
312.96	2.673
313.32	2.655
313.68	2.640
314.04	2.734
314.40	2.733
314.76	2.759
315.12	3.023
315.48	3.209
315.84	3.046
316.20	3.057
316.56	3.002
316.92	2.857
317.27	2.765
317.63	2.760
317.99	2.593
318.35	2.523
318.71	2.323
319.07	2.198
319.43	2.109
319.79	2.116
320.15	2.141
320.50	2.121
320.86	2.208
321.22	2.290
321.58	2.334
321.94	2.302
322.30	2.335
322.66	2.530
323.01	2.560
323.37	2.526
323.73	2.537
324.09	2.543
324.45	2.628
324.81	2.568
325.17	2.647
325.52	2.666
325.88	2.668
326.24	2.712
326.60	2.734
326.96	2.853
327.31	2.867
327.67	2.896
328.03	2.898
328.39	2.786
328.75	2.870
329.11	2.900
329.46	2.841
329.82	2.968
330.18	2.997
330.54	2.961
330.90	2.925
331.25	2.960
331.61	3.008
331.97	2.911
332.33	3.054
332.68	2.919
333.04	2.763
333.40	2.824
333.76	2.837
334.11	2.822
334.47	2.812
334.83	2.675
335.19	2.681
335.54	2.785
335.90	2.880
336.26	2.808
336.62	2.968
336.97	3.040
337.33	3.018
337.69	2.976
338.05	2.967
338.40	2.933
338.76	2.946
339.12	2.928
339.48	2.895
339.83	2.974
340.19	2.980
340.55	2.832
340.90	2.744
341.26	2.668
341.62	2.663
341.97	2.726
342.33	2.791
342.69	2.877
343.04	2.902
343.40	2.804
343.76	2.851
344.12	2.922
344.47	3.041
344.83	3.021
345.19	3.087
345.54	3.129
345.90	3.133
346.26	3.041
346.61	3.059
346.97	3.064
347.32	3.189
347.68	3.021
348.04	2.976
348.39	2.917
348.75	3.123
349.11	3.121
349.46	3.130
349.82	3.112
350.18	3.171
350.53	3.104
350.89	3.133
351.24	3.122
351.60	3.107
351.96	3.170
352.31	3.263
352.67	3.161
353.02	3.196
353.38	3.141
353.74	3.093
354.09	3.076
354.45	3.146
354.80	3.077
355.16	3.000
355.52	3.025
355.87	2.921
356.23	2.800
356.58	2.845
356.94	2.802
357.29	2.859
357.65	2.850
358.00	2.895
358.36	2.872
358.72	2.921
359.07	2.978
359.43	3.027
359.78	3.074
360.14	3.123
360.49	3.091
360.85	3.083
361.20	3.084
361.56	3.137
361.91	3.092
362.27	3.125
362.62	3.090
362.98	3.043
363.33	3.021
363.69	2.978
364.04	2.946
364.40	2.952
364.75	2.982
365.11	3.010
365.46	2.991
365.82	3.007
366.17	2.959
366.53	3.019
366.88	3.036
367.24	3.089
367.59	3.142
367.95	3.230
368.30	3.263
368.66	3.274
369.01	3.249
369.37	3.294
369.72	3.313
370.08	3.370
370.43	3.324
370.78	3.335
371.14	3.318
371.49	3.351
371.85	3.313
372.20	3.319
372.56	3.393
372.91	3.387
373.26	3.360
373.62	3.351
373.97	3.335
374.33	3.391
374.68	3.412
375.03	3.446
375.39	3.414
375.74	3.446
376.10	3.428
376.45	3.418
376.80	3.438
377.16	3.463
377.51	3.535
377.87	3.493
378.22	3.469
378.57	3.511
378.93	3.522
379.28	3.543
379.63	3.542
379.99	3.548
380.34	3.535
380.70	3.582
381.05	3.621
381.40	3.629
381.76	3.695
382.11	3.738
382.46	3.681
382.82	3.698
383.17	3.747
383.52	3.765
383.88	3.804
384.23	3.780
384.58	3.744
384.94	3.753
385.29	3.744
385.64	3.748
385.99	3.762
386.35	3.854
386.70	3.845
387.05	3.814
387.41	3.875
387.76	3.882
388.11	3.925
388.47	3.979
388.82	3.962
389.17	3.997
389.52	4.031
389.88	4.054
390.23	4.051
390.58	4.105
390.93	4.148
391.29	4.128
391.64	4.148
391.99	4.136
392.34	4.163
392.70	4.204
393.05	4.206
393.40	4.194
393.75	4.197
394.11	4.180
394.46	4.184
394.81	4.170
395.16	4.165
395.52	4.202
395.87	4.172
396.22	4.137
396.57	4.112
396.92	4.107
397.28	4.141
397.63	4.104
397.98	4.169
398.33	4.172
398.68	4.194
399.04	4.199
399.39	4.177
399.74	4.238
400.09	4.248
400.44	4.265
400.80	4.261
401.15	4.262
401.50	4.291
401.85	4.288
402.20	4.280
402.55	4.311
402.90	4.316
403.26	4.339
403.61	4.361
403.96	4.394
404.31	4.409
404.66	4.437
405.01	4.469
405.36	4.510
405.72	4.512
406.07	4.538
406.42	4.529
406.77	4.557
407.12	4.572
407.47	4.581
407.82	4.583
408.17	4.578
408.53	4.584
408.88	4.592
409.23	4.600
409.58	4.587
409.93	4.574
410.28	4.611
410.63	4.620
410.98	4.632
411.33	4.614
411.68	4.610
412.03	4.637
412.38	4.643
412.73	4.615
413.09	4.620
413.44	4.619
413.79	4.658
414.14	4.645
414.49	4.654
414.84	4.662
415.19	4.711
415.54	4.742
415.89	4.746
416.24	4.765
416.59	4.801
416.94	4.827
417.29	4.871
417.64	4.873
417.99	4.901
418.34	4.907
418.69	4.912
419.04	4.906
419.39	4.930
419.74	4.951
420.09	4.975
420.44	4.972
420.79	4.962
421.14	4.950
421.49	4.955
421.84	4.952
422.19	4.965
422.54	4.980
422.89	4.989
423.24	4.981
423.59	4.994
423.94	4.985
424.29	4.983
424.64	4.987
424.99	4.999
425.34	5.010
425.68	5.019
426.03	5.040
426.38	5.039
426.73	5.038
427.08	5.039
427.43	5.036
427.78	5.042
428.13	5.077
428.48	5.101
428.83	5.115
429.18	5.123
429.53	5.143
429.87	5.147
430.22	5.154
430.57	5.175
430.92	5.176
431.27	5.181
431.62	5.171
431.97	5.152
432.32	5.150
432.67	5.160
433.01	5.167
433.36	5.173
433.71	5.166
434.06	5.168
434.41	5.181
434.76	5.200
435.11	5.187
435.45	5.199
435.80	5.227
436.15	5.241
436.50	5.242
436.85	5.239
437.20	5.236
437.54	5.250
437.89	5.254
438.24	5.249
438.59	5.251
438.94	5.264
439.29	5.281
439.63	5.280
439.98	5.269
440.33	5.273
440.68	5.286
441.03	5.286
441.37	5.267
441.72	5.285
442.07	5.288
442.42	5.293
442.76	5.292
443.11	5.296
443.46	5.293
443.81	5.286
444.16	5.285
444.50	5.276
444.85	5.281
445.20	5.303
445.55	5.295
445.89	5.288
446.24	5.275
446.59	5.280
446.94	5.257
447.28	5.250
447.63	5.268
447.98	5.270
448.32	5.288
448.67	5.274
449.02	5.258
449.37	5.236
449.71	5.232
450.06	5.236
450.41	5.230
450.75	5.248
451.10	5.237
451.45	5.225
451.79	5.213
452.14	5.186
452.49	5.179
452.84	5.168
453.18	5.175
453.53	5.181
453.88	5.165
454.22	5.163
454.57	5.171
454.92	5.193
455.26	5.214
455.61	5.232
455.95	5.256
456.30	5.274
456.65	5.304
456.99	5.315
457.34	5.330
457.69	5.377
458.03	5.397
458.38	5.417
458.73	5.434
459.07	5.462
459.42	5.478
459.76	5.488
460.11	5.500
460.46	5.498
460.80	5.543
461.15	5.562
461.49	5.542
461.84	5.563
462.19	5.572
462.53	5.598
462.88	5.590
463.22	5.586
463.57	5.618
463.91	5.656
464.26	5.689
464.61	5.687
464.95	5.706
465.30	5.742
465.64	5.756
465.99	5.772
466.33	5.784
466.68	5.818
467.02	5.861
467.37	5.865
467.71	5.878
468.06	5.902
468.41	5.918
468.75	5.928
469.10	5.919
469.44	5.931
469.79	5.938
470.13	5.951
470.48	5.920
470.82	5.903
471.17	5.911
471.51	5.893
471.86	5.880
472.20	5.888
472.55	5.888
472.89	5.907
473.23	5.900
473.58	5.891
473.92	5.872
474.27	5.886
474.61	5.910
474.96	5.903
475.30	5.904
475.65	5.887
475.99	5.865
476.34	5.862
476.68	5.862
477.02	5.874
477.37	5.896
477.71	5.908
478.06	5.936
478.40	5.970
478.75	6.038
479.09	6.126
479.43	6.210
479.78	6.305
480.12	6.412
480.47	6.527
480.81	6.644
481.15	6.759
481.50	6.881
481.84	7.017
482.19	7.157
482.53	7.272
482.87	7.337
483.22	7.348
483.56	7.297
483.90	7.194
484.25	7.066
484.59	6.939
484.94	6.845
485.28	6.756
485.62	6.640
485.97	6.513
486.31	6.395
486.65	6.326
487.00	6.328
487.34	6.376
487.68	6.458
488.03	6.550
488.37	6.634
488.71	6.672
489.06	6.696
489.40	6.709
489.74	6.713
490.09	6.738
490.43	6.747
490.77	6.741
491.11	6.747
491.46	6.761
491.80	6.779
492.14	6.784
492.49	6.804
492.83	6.811
493.17	6.834
493.51	6.869
493.86	6.894
494.20	6.923
494.54	6.964
494.88	7.017
495.23	7.054
495.57	7.094
495.91	7.152
496.25	7.193
496.60	7.238
496.94	7.281
497.28	7.328
497.62	7.379
497.97	7.455
498.31	7.525
498.65	7.557
498.99	7.618
499.33	7.671
499.68	7.734
500.02	7.803
500.36	7.876
500.70	7.951
501.04	8.029
501.39	8.086
501.73	8.154
502.07	8.221
502.41	8.319
502.75	8.388
503.09	8.488
503.44	8.581
503.78	8.665
504.12	8.766
504.46	8.858
504.80	8.933
505.14	9.025
505.49	9.104
505.83	9.190
506.17	9.264
506.51	9.346
506.85	9.420
507.19	9.488
507.53	9.548
507.87	9.623
508.22	9.697
508.56	9.770
508.90	9.853
509.24	9.931
509.58	10.005
509.92	10.077
510.26	10.158
510.60	10.233
510.94	10.325
511.28	10.416
511.63	10.497
511.97	10.579
512.31	10.668
512.65	10.738
512.99	10.804
513.33	10.874
513.67	10.969
514.01	11.069
514.35	11.174
514.69	11.249
515.03	11.343
515.37	11.410
515.71	11.478
516.05	11.557
516.39	11.629
516.73	11.700
517.07	11.780
517.41	11.853
517.75	11.889
518.09	11.928
518.43	11.967
518.77	12.000
519.11	12.054
519.45	12.111
519.79	12.154
520.13	12.224
520.47	12.275
520.81	12.312
521.15	12.355
521.49	12.433
521.83	12.519
522.17	12.602
522.51	12.678
522.85	12.747
523.19	12.850
523.53	12.981
523.87	13.130
524.21	13.295
524.55	13.442
524.89	13.564
525.23	13.695
525.57	13.802
525.91	13.896
526.25	13.999
526.58	14.092
526.92	14.167
527.26	14.211
527.60	14.229
527.94	14.237
528.28	14.255
528.62	14.266
528.96	14.256
529.30	14.254
529.64	14.253
529.97	14.246
530.31	14.243
530.65	14.235
530.99	14.259
531.33	14.299
531.67	14.346
532.01	14.390
532.35	14.434
532.68	14.465
533.02	14.496
533.36	14.524
533.70	14.549
534.04	14.573
534.38	14.603
534.71	14.630
535.05	14.662
535.39	14.686
535.73	14.711
536.07	14.762
536.41	14.833
536.74	14.904
537.08	14.998
537.42	15.091
537.76	15.177
538.10	15.252
538.43	15.343
538.77	15.406
539.11	15.478
539.45	15.529
539.79	15.573
540.12	15.621
540.46	15.653
540.80	15.675
541.14	15.678
541.47	15.687
541.81	15.722
542.15	15.740
542.49	15.760
542.82	15.768
543.16	15.790
543.50	15.809
543.84	15.829
544.17	15.863
544.51	15.907
544.85	15.959
545.18	15.998
545.52	16.023
545.86	16.055
546.20	16.087
546.53	16.140
546.87	16.186
547.21	16.223
547.54	16.254
547.88	16.314
548.22	16.337
548.55	16.390
548.89	16.468
549.23	16.524
549.56	16.545
549.90	16.591
550.24	16.625
550.57	16.661
550.91	16.700
551.25	16.756
551.58	16.787
551.92	16.832
552.26	16.851
552.59	16.864
552.93	16.910
553.27	16.973
553.60	17.008
553.94	17.082
554.27	17.124
554.61	17.204
554.95	17.259
555.28	17.303
555.62	17.370
555.95	17.428
556.29	17.519
556.63	17.562
556.96	17.595
557.30	17.664
557.63	17.662
557.97	17.716
558.31	17.743
558.64	17.801
558.98	17.840
559.31	17.871
559.65	17.926
559.98	17.936
560.32	17.982
560.65	18.024
560.99	18.085
561.33	18.153
561.66	18.209
562.00	18.254
562.33	18.274
562.67	18.321
563.00	18.382
563.34	18.417
563.67	18.463
564.01	18.480
564.34	18.510
564.68	18.531
565.01	18.569
565.35	18.610
565.68	18.650
566.02	18.693
566.35	18.739
566.69	18.768
567.02	18.817
567.36	18.873
567.69	18.932
568.03	18.998
568.36	19.043
568.69	19.083
569.03	19.132
569.36	19.179
569.70	19.225
570.03	19.253
570.37	19.270
570.70	19.327
571.04	19.336
571.37	19.368
571.70	19.421
572.04	19.461
572.37	19.483
572.71	19.528
573.04	19.574
573.37	19.616
573.71	19.699
574.04	19.765
574.38	19.800
574.71	19.895
575.04	19.952
575.38	19.979
575.71	20.013
576.05	20.094
576.38	20.141
576.71	20.188
577.05	20.226
577.38	20.251
577.71	20.304
578.05	20.356
578.38	20.383
578.71	20.443
579.05	20.487
579.38	20.555
579.71	20.556
580.05	20.577
580.38	20.626
580.71	20.672
581.05	20.678
581.38	20.710
581.71	20.727
582.05	20.757
582.38	20.788
582.71	20.834
583.04	20.862
583.38	20.930
583.71	20.992
584.04	21.053
584.38	21.109
584.71	21.175
585.04	21.217
585.37	21.271
585.71	21.306
586.04	21.340
586.37	21.361
586.70	21.410
587.04	21.425
587.37	21.418
587.70	21.411
588.03	21.418
588.37	21.432
588.70	21.466
589.03	21.503
589.36	21.541
589.69	21.556
590.03	21.604
590.36	21.611
590.69	21.661
591.02	21.695
591.35	21.716
591.69	21.734
592.02	21.752
592.35	21.728
592.68	21.731
593.01	21.761
593.35	21.787
593.68	21.803
594.01	21.809
594.34	21.812
594.67	21.831
595.00	21.858
595.34	21.877
595.67	21.917
596.00	21.989
596.33	21.975
596.66	21.969
596.99	21.993
597.32	22.031
597.65	22.091
597.99	22.094
598.32	22.121
598.65	22.147
598.98	22.173
599.31	22.189
599.64	22.188
599.97	22.268
600.30	22.276
600.63	22.305
600.96	22.282
601.30	22.266
601.63	22.341
601.96	22.392
602.29	22.406
602.62	22.443
602.95	22.446
603.28	22.459
603.61	22.450
603.94	22.488
604.27	22.493
604.60	22.541
604.93	22.588
605.26	22.583
605.59	22.562
605.92	22.577
606.25	22.571
606.58	22.614
606.91	22.632
607.24	22.648
607.57	22.639
607.90	22.662
608.23	22.659
608.56	22.655
608.89	22.714
609.22	22.757
609.55	22.759
609.88	22.793
610.21	22.808
610.54	22.837
610.87	22.862
611.20	22.932
611.53	22.990
611.86	23.015
612.19	23.084
612.52	23.050
612.85	23.085
613.18	23.128
613.51	23.112
613.84	23.123
614.17	23.128
614.49	23.174
614.82	23.194
615.15	23.181
615.48	23.233
615.81	23.224
616.14	23.229
616.47	23.203
616.80	23.215
617.13	23.253
617.46	23.268
617.78	23.277
618.11	23.280
618.44	23.279
618.77	23.267
619.10	23.250
619.43	23.255
619.76	23.251
620.09	23.279
620.41	23.327
620.74	23.370
621.07	23.388
621.40	23.424
621.73	23.416
622.06	23.440
622.38	23.478
622.71	23.476
623.04	23.489
623.37	23.536
623.70	23.546
624.02	23.520
624.35	23.558
624.68	23.538
625.01	23.569
625.34	23.617
625.66	23.581
625.99	23.577
626.32	23.594
626.65	23.603
626.98	23.620
627.30	23.653
627.63	23.707
627.96	23.706
628.29	23.753
628.61	23.790
628.94	23.772
629.27	23.826
629.60	23.852
629.92	23.882
630.25	23.924
630.58	23.894
630.91	23.878
631.23	23.862
631.56	23.840
631.89	23.841
632.21	23.815
632.54	23.791
632.87	23.791
633.19	23.778
633.52	23.747
633.85	23.729
634.18	23.725
634.50	23.695
634.83	23.667
635.16	23.702
635.48	23.702
635.81	23.669
636.14	23.720
636.46	23.687
636.79	23.712
637.11	23.747
637.44	23.733
637.77	23.761
638.09	23.791
638.42	23.776
638.75	23.722
639.07	23.749
639.40	23.776
639.73	23.794
640.05	23.876
640.38	23.899
640.70	23.933
641.03	23.943
641.36	23.977
641.68	24.013
642.01	24.055
642.33	24.114
642.66	24.100
642.98	24.087
643.31	24.054
643.64	24.004
643.96	23.973
644.29	23.946
644.61	23.968
644.94	23.986
645.26	23.937
645.59	23.960
645.91	23.932
646.24	23.931
646.56	23.976
646.89	23.924
647.22	23.954
647.54	23.958
647.87	23.959
648.19	23.940
648.52	23.947
648.84	23.993
649.17	24.010
649.49	24.010
649.82	24.029
