OOIBase32 Version 2.0.0.6 Data File
++++++++++++++++++++++++++++++++++++
Date: 01-20-2012, 22:52:35
User: Valued Ocean Optics Customer
Spectrometer Serial Number: USB2E2917
Spectrometer Channel: Master
Integration Time (msec): 3
Spectra Averaged: 10
Boxcar Smoothing: 5
Correct for Electrical Dark: Enabled
Time Normalized: Disabled
Dual-beam Reference: Disabled
Reference Channel: Master
Temperature: Not acquired
Spectrometer Type: S2000
ADC Type: USB2000
Number of Pixels in File: 2048
Graph Title: 
>>>>>Begin Spectral Data<<<<<
180.30	0.000
180.67	0.000
181.03	59.181
181.40	18.308
181.77	-34.904
182.14	73.850
182.51	-1373.429
182.88	34.639
183.25	116.557
183.62	106.027
183.99	213.993
184.36	7.865
184.73	64.404
185.10	97.328
185.46	153.813
185.83	113.857
186.20	82.793
186.57	72.387
186.94	-3357.873
187.31	-172.709
187.68	-9.977
188.05	211.837
188.42	226.435
188.78	488.477
189.15	117.983
189.52	-1.311
189.89	-4.874
190.26	-29.127
190.63	-85.431
191.00	-112.704
191.37	-148.327
191.73	-107.512
192.10	-239.501
192.47	-506.436
192.84	-191.301
193.21	-16529.748
193.58	361.676
193.94	124.362
194.31	105.059
194.68	38.004
195.05	-21.376
195.42	-117.145
195.79	35.308
196.15	22.232
196.52	89.724
196.89	77.652
197.26	552.778
197.63	-13.674
198.00	-45.262
198.36	-227.962
198.73	-180.049
199.10	-105.744
199.47	-127.370
199.84	-121.084
200.20	-33.899
200.57	0.993
200.94	17.319
201.31	16.792
201.68	-8.847
202.04	2.816
202.41	21.745
202.78	5.470
203.15	-55.326
203.51	-122.096
203.88	-140.908
204.25	-207.398
204.62	-392.434
204.98	-240.367
205.35	-138.462
205.72	-74.737
206.09	-264.501
206.46	-130.579
206.82	-79.471
207.19	-5.946
207.56	17.629
207.92	33.751
208.29	33.643
208.66	40.454
209.03	32.368
209.39	7.971
209.76	-10.119
210.13	-7.246
210.50	-15.895
210.86	0.454
211.23	-10.998
211.60	-26.233
211.96	-26.924
212.33	-2.111
212.70	4.845
213.07	-19.332
213.43	5.603
213.80	4.353
214.17	4.016
214.53	8.281
214.90	3.741
215.27	-12.342
215.63	-10.032
216.00	-21.327
216.37	-25.466
216.74	-34.306
217.10	-17.835
217.47	-23.163
217.84	-15.887
218.20	-16.395
218.57	-15.399
218.94	-12.337
219.30	-2.449
219.67	7.538
220.04	3.883
220.40	1.442
220.77	-1.910
221.13	-1.691
221.50	6.478
221.87	7.219
222.23	9.948
222.60	12.196
222.97	5.592
223.33	1.906
223.70	-2.849
224.07	3.865
224.43	3.448
224.80	0.445
225.16	1.495
225.53	0.080
225.90	0.041
226.26	0.918
226.63	0.716
226.99	2.311
227.36	1.604
227.73	3.007
228.09	2.839
228.46	3.721
228.82	4.747
229.19	4.398
229.56	4.367
229.92	3.693
230.29	2.127
230.65	2.652
231.02	1.741
231.38	2.815
231.75	2.188
232.12	1.638
232.48	2.405
232.85	3.436
233.21	3.374
233.58	4.938
233.94	6.503
234.31	9.625
234.68	10.507
235.04	10.653
235.41	10.864
235.77	9.941
236.14	10.309
236.50	8.689
236.87	9.330
237.23	9.912
237.60	8.477
237.96	7.372
238.33	6.300
238.69	6.039
239.06	5.927
239.42	6.454
239.79	6.215
240.15	5.793
240.52	6.418
240.88	6.423
241.25	6.279
241.61	7.463
241.98	7.618
242.34	7.476
242.71	7.515
243.07	7.484
243.44	7.453
243.80	8.065
244.17	8.293
244.53	7.999
244.90	7.641
245.26	7.516
245.63	7.249
245.99	7.585
246.36	7.790
246.72	7.535
247.09	7.527
247.45	7.243
247.81	7.196
248.18	7.205
248.54	7.282
248.91	7.518
249.27	7.740
249.64	7.561
250.00	7.519
250.36	7.475
250.73	7.906
251.09	8.158
251.46	8.695
251.82	8.857
252.19	8.647
252.55	8.624
252.91	8.434
253.28	8.492
253.64	8.544
254.01	8.227
254.37	7.933
254.73	7.376
255.10	7.012
255.46	7.048
255.83	6.689
256.19	6.826
256.55	7.099
256.92	7.123
257.28	7.031
257.65	7.034
258.01	7.127
258.37	7.155
258.74	7.071
259.10	7.037
259.46	7.048
259.83	7.044
260.19	6.813
260.55	6.659
260.92	6.414
261.28	6.430
261.64	6.316
262.01	5.752
262.37	5.765
262.73	5.922
263.10	6.179
263.46	5.925
263.82	6.176
264.19	6.535
264.55	6.479
264.91	6.901
265.28	6.942
265.64	7.054
266.00	7.543
266.37	7.565
266.73	7.622
267.09	7.618
267.46	7.721
267.82	7.412
268.18	7.162
268.54	6.998
268.91	6.803
269.27	6.414
269.63	6.417
270.00	6.119
270.36	5.885
270.72	6.100
271.08	6.002
271.45	5.814
271.81	5.604
272.17	5.887
272.53	6.041
272.90	6.100
273.26	6.449
273.62	6.367
273.98	6.312
274.35	6.175
274.71	5.961
275.07	5.932
275.43	5.836
275.80	6.117
276.16	5.965
276.52	5.805
276.88	5.768
277.25	5.668
277.61	5.861
277.97	6.331
278.33	6.434
278.69	6.376
279.06	6.343
279.42	6.581
279.78	6.571
280.14	6.602
280.50	6.795
280.87	6.841
281.23	6.876
281.59	6.792
281.95	6.595
282.31	6.514
282.68	6.497
283.04	6.536
283.40	6.454
283.76	6.494
284.12	6.542
284.48	6.537
284.85	6.530
285.21	6.408
285.57	6.290
285.93	6.270
286.29	6.370
286.65	6.469
287.02	6.476
287.38	6.520
287.74	6.492
288.10	6.590
288.46	6.736
288.82	6.755
289.18	6.840
289.54	7.114
289.91	7.153
290.27	7.175
290.63	7.175
290.99	7.295
291.35	7.562
291.71	7.606
292.07	7.892
292.43	7.702
292.79	7.765
293.16	7.982
293.52	8.099
293.88	8.239
294.24	8.529
294.60	8.589
294.96	8.711
295.32	8.605
295.68	8.927
296.04	8.792
296.40	9.078
296.76	9.338
297.12	9.438
297.49	9.659
297.85	9.885
298.21	10.092
298.57	10.572
298.93	10.933
299.29	11.473
299.65	11.700
300.01	12.026
300.37	12.341
300.73	12.661
301.09	12.898
301.45	13.049
301.81	13.481
302.17	13.746
302.53	13.995
302.89	14.329
303.25	14.529
303.61	14.851
303.97	15.231
304.33	15.381
304.69	15.441
305.05	15.839
305.41	16.313
305.77	16.239
306.13	16.506
306.49	16.442
306.85	16.494
307.21	16.593
307.57	16.729
307.93	16.774
308.29	16.981
308.65	17.072
309.01	17.005
309.37	16.948
309.73	17.170
310.09	17.245
310.45	17.575
310.81	17.656
311.17	17.629
311.53	17.612
311.89	17.634
312.25	17.611
312.61	17.864
312.96	18.192
313.32	18.151
313.68	18.357
314.04	18.308
314.40	18.112
314.76	18.163
315.12	18.288
315.48	18.368
315.84	18.439
316.20	18.460
316.56	18.193
316.92	18.065
317.27	18.223
317.63	17.958
317.99	17.915
318.35	17.924
318.71	17.910
319.07	17.923
319.43	17.875
319.79	17.794
320.15	17.614
320.50	17.673
320.86	17.494
321.22	17.366
321.58	17.392
321.94	17.575
322.30	17.605
322.66	17.501
323.01	17.360
323.37	17.261
323.73	17.254
324.09	17.374
324.45	17.326
324.81	17.400
325.17	17.308
325.52	17.419
325.88	17.236
326.24	17.191
326.60	17.349
326.96	17.289
327.31	17.347
327.67	17.259
328.03	17.256
328.39	17.345
328.75	17.223
329.11	17.202
329.46	17.110
329.82	17.131
330.18	17.040
330.54	16.860
330.90	16.960
331.25	16.910
331.61	16.951
331.97	16.939
332.33	16.878
332.68	16.875
333.04	16.904
333.40	16.945
333.76	16.835
334.11	16.821
334.47	16.801
334.83	16.692
335.19	16.634
335.54	16.517
335.90	16.547
336.26	16.582
336.62	16.708
336.97	16.675
337.33	16.631
337.69	16.647
338.05	16.642
338.40	16.517
338.76	16.613
339.12	16.549
339.48	16.533
339.83	16.358
340.19	16.229
340.55	16.049
340.90	16.044
341.26	15.921
341.62	15.824
341.97	15.717
342.33	15.753
342.69	15.597
343.04	15.673
343.40	15.806
343.76	15.876
344.12	15.833
344.47	15.876
344.83	15.859
345.19	15.764
345.54	15.882
345.90	15.867
346.26	15.891
346.61	16.015
346.97	15.947
347.32	15.805
347.68	15.824
348.04	15.899
348.39	15.809
348.75	15.803
349.11	15.734
349.46	15.583
349.82	15.572
350.18	15.522
350.53	15.363
350.89	15.267
351.24	15.233
351.60	15.113
351.96	14.965
352.31	14.969
352.67	14.896
353.02	14.972
353.38	14.916
353.74	14.875
354.09	14.876
354.45	14.837
354.80	14.852
355.16	14.854
355.52	14.801
355.87	14.833
356.23	14.740
356.58	14.687
356.94	14.685
357.29	14.666
357.65	14.653
358.00	14.578
358.36	14.534
358.72	14.489
359.07	14.420
359.43	14.382
359.78	14.329
360.14	14.353
360.49	14.316
360.85	14.251
361.20	14.234
361.56	14.182
361.91	14.127
362.27	14.125
362.62	14.079
362.98	14.098
363.33	14.047
363.69	14.031
364.04	13.993
364.40	13.971
364.75	14.010
365.11	13.972
365.46	13.932
365.82	13.919
366.17	13.862
366.53	13.813
366.88	13.722
367.24	13.704
367.59	13.677
367.95	13.595
368.30	13.589
368.66	13.503
369.01	13.519
369.37	13.523
369.72	13.459
370.08	13.498
370.43	13.537
370.78	13.526
371.14	13.512
371.49	13.408
371.85	13.447
372.20	13.373
372.56	13.345
372.91	13.265
373.26	13.181
373.62	13.211
373.97	13.143
374.33	13.127
374.68	13.090
375.03	13.053
375.39	13.065
375.74	12.952
376.10	12.935
376.45	12.856
376.80	12.829
377.16	12.849
377.51	12.787
377.87	12.763
378.22	12.637
378.57	12.586
378.93	12.547
379.28	12.503
379.63	12.572
379.99	12.541
380.34	12.508
380.70	12.494
381.05	12.473
381.40	12.462
381.76	12.434
382.11	12.435
382.46	12.466
382.82	12.500
383.17	12.491
383.52	12.422
383.88	12.390
384.23	12.380
384.58	12.331
384.94	12.260
385.29	12.166
385.64	12.142
385.99	12.170
386.35	12.078
386.70	11.982
387.05	11.942
387.41	11.896
387.76	11.876
388.11	11.858
388.47	11.839
388.82	11.852
389.17	11.869
389.52	11.832
389.88	11.776
390.23	11.804
390.58	11.793
390.93	11.820
391.29	11.817
391.64	11.786
391.99	11.789
392.34	11.797
392.70	11.765
393.05	11.738
393.40	11.703
393.75	11.734
394.11	11.692
394.46	11.682
394.81	11.597
395.16	11.555
395.52	11.541
395.87	11.494
396.22	11.417
396.57	11.391
396.92	11.381
397.28	11.389
397.63	11.300
397.98	11.252
398.33	11.175
398.68	11.158
399.04	11.147
399.39	11.090
399.74	11.017
400.09	11.020
400.44	10.989
400.80	10.910
401.15	10.842
401.50	10.817
401.85	10.805
402.20	10.777
402.55	10.771
402.90	10.754
403.26	10.704
403.61	10.696
403.96	10.635
404.31	10.597
404.66	10.593
405.01	10.575
405.36	10.528
405.72	10.515
406.07	10.532
406.42	10.496
406.77	10.454
407.12	10.488
407.47	10.445
407.82	10.427
408.17	10.384
408.53	10.353
408.88	10.348
409.23	10.345
409.58	10.298
409.93	10.272
410.28	10.232
410.63	10.209
410.98	10.169
411.33	10.185
411.68	10.192
412.03	10.177
412.38	10.167
412.73	10.130
413.09	10.079
413.44	10.061
413.79	10.040
414.14	10.030
414.49	9.988
414.84	9.963
415.19	9.948
415.54	9.900
415.89	9.869
416.24	9.849
416.59	9.833
416.94	9.848
417.29	9.819
417.64	9.801
417.99	9.782
418.34	9.763
418.69	9.765
419.04	9.729
419.39	9.725
419.74	9.729
420.09	9.692
420.44	9.678
420.79	9.642
421.14	9.656
421.49	9.641
421.84	9.634
422.19	9.652
422.54	9.635
422.89	9.643
423.24	9.632
423.59	9.631
423.94	9.662
424.29	9.640
424.64	9.660
424.99	9.630
425.34	9.630
425.68	9.634
426.03	9.583
426.38	9.582
426.73	9.594
427.08	9.615
427.43	9.581
427.78	9.578
428.13	9.624
428.48	9.607
428.83	9.596
429.18	9.585
429.53	9.558
429.87	9.573
430.22	9.536
430.57	9.495
430.92	9.478
431.27	9.497
431.62	9.469
431.97	9.446
432.32	9.431
432.67	9.429
433.01	9.423
433.36	9.400
433.71	9.384
434.06	9.397
434.41	9.392
434.76	9.386
435.11	9.346
435.45	9.334
435.80	9.330
436.15	9.338
436.50	9.333
436.85	9.328
437.20	9.341
437.54	9.325
437.89	9.301
438.24	9.295
438.59	9.268
438.94	9.268
439.29	9.270
439.63	9.250
439.98	9.230
440.33	9.214
440.68	9.196
441.03	9.170
441.37	9.163
441.72	9.170
442.07	9.152
442.42	9.158
442.76	9.145
443.11	9.138
443.46	9.146
443.81	9.138
444.16	9.148
444.50	9.146
444.85	9.143
445.20	9.138
445.55	9.120
445.89	9.133
446.24	9.111
446.59	9.113
446.94	9.101
447.28	9.059
447.63	9.037
447.98	8.983
448.32	8.972
448.67	8.970
449.02	8.970
449.37	8.961
449.71	8.907
450.06	8.914
450.41	8.901
450.75	8.896
451.10	8.930
451.45	8.939
451.79	8.946
452.14	8.937
452.49	8.936
452.84	8.937
453.18	8.916
453.53	8.946
453.88	8.912
454.22	8.894
454.57	8.876
454.92	8.839
455.26	8.822
455.61	8.828
455.95	8.826
456.30	8.810
456.65	8.796
456.99	8.813
457.34	8.812
457.69	8.813
458.03	8.812
458.38	8.807
458.73	8.808
459.07	8.800
459.42	8.782
459.76	8.767
460.11	8.754
460.46	8.741
460.80	8.730
461.15	8.713
461.49	8.726
461.84	8.724
462.19	8.713
462.53	8.686
462.88	8.676
463.22	8.659
463.57	8.648
463.91	8.639
464.26	8.637
464.61	8.603
464.95	8.585
465.30	8.557
465.64	8.540
465.99	8.561
466.33	8.567
466.68	8.563
467.02	8.588
467.37	8.570
467.71	8.570
468.06	8.576
468.41	8.565
468.75	8.554
469.10	8.545
469.44	8.544
469.79	8.491
470.13	8.480
470.48	8.476
470.82	8.433
471.17	8.441
471.51	8.420
471.86	8.386
472.20	8.405
472.55	8.360
472.89	8.331
473.23	8.301
473.58	8.308
473.92	8.297
474.27	8.261
474.61	8.264
474.96	8.228
475.30	8.223
475.65	8.211
475.99	8.182
476.34	8.206
476.68	8.229
477.02	8.219
477.37	8.206
477.71	8.203
478.06	8.235
478.40	8.260
478.75	8.314
479.09	8.357
479.43	8.406
479.78	8.475
480.12	8.536
480.47	8.590
480.81	8.649
481.15	8.711
481.50	8.761
481.84	8.839
482.19	8.918
482.53	8.976
482.87	8.984
483.22	8.923
483.56	8.872
483.90	8.836
484.25	8.807
484.59	8.775
484.94	8.720
485.28	8.676
485.62	8.584
485.97	8.478
486.31	8.390
486.65	8.354
487.00	8.402
487.34	8.428
487.68	8.416
488.03	8.401
488.37	8.381
488.71	8.372
489.06	8.351
489.40	8.317
489.74	8.308
490.09	8.266
490.43	8.229
490.77	8.190
491.11	8.147
491.46	8.113
491.80	8.075
492.14	8.030
492.49	7.992
492.83	7.939
493.17	7.912
493.51	7.843
493.86	7.827
494.20	7.805
494.54	7.777
494.88	7.766
495.23	7.774
495.57	7.769
495.91	7.764
496.25	7.756
496.60	7.745
496.94	7.738
497.28	7.737
497.62	7.723
497.97	7.693
498.31	7.708
498.65	7.686
498.99	7.658
499.33	7.649
499.68	7.650
500.02	7.637
500.36	7.630
500.70	7.609
501.04	7.592
501.39	7.573
501.73	7.580
502.07	7.553
502.41	7.527
502.75	7.525
503.09	7.500
503.44	7.489
503.78	7.500
504.12	7.509
504.46	7.510
504.80	7.510
505.14	7.512
505.49	7.509
505.83	7.515
506.17	7.530
506.51	7.524
506.85	7.507
507.19	7.510
507.53	7.501
507.87	7.502
508.22	7.479
508.56	7.500
508.90	7.502
509.24	7.489
509.58	7.465
509.92	7.454
510.26	7.435
510.60	7.426
510.94	7.391
511.28	7.374
511.63	7.351
511.97	7.358
512.31	7.334
512.65	7.327
512.99	7.326
513.33	7.333
513.67	7.339
514.01	7.349
514.35	7.365
514.69	7.378
515.03	7.373
515.37	7.400
515.71	7.405
516.05	7.421
516.39	7.416
516.73	7.413
517.07	7.405
517.41	7.399
517.75	7.386
518.09	7.381
518.43	7.380
518.77	7.374
519.11	7.312
519.45	7.292
519.79	7.243
520.13	7.206
520.47	7.183
520.81	7.183
521.15	7.164
521.49	7.172
521.83	7.158
522.17	7.159
522.51	7.176
522.85	7.216
523.19	7.263
523.53	7.297
523.87	7.365
524.21	7.423
524.55	7.473
524.89	7.533
525.23	7.579
525.57	7.619
525.91	7.646
526.25	7.671
526.58	7.701
526.92	7.722
527.26	7.746
527.60	7.739
527.94	7.729
528.28	7.709
528.62	7.686
528.96	7.653
529.30	7.611
529.64	7.576
529.97	7.538
530.31	7.495
530.65	7.451
530.99	7.407
531.33	7.381
531.67	7.352
532.01	7.333
532.35	7.315
532.68	7.298
533.02	7.296
533.36	7.284
533.70	7.261
534.04	7.239
534.38	7.199
534.71	7.174
535.05	7.147
535.39	7.122
535.73	7.088
536.07	7.073
536.41	7.053
536.74	7.057
537.08	7.077
537.42	7.098
537.76	7.123
538.10	7.160
538.43	7.183
538.77	7.196
539.11	7.229
539.45	7.240
539.79	7.245
540.12	7.280
540.46	7.291
540.80	7.279
541.14	7.268
541.47	7.251
541.81	7.220
542.15	7.197
542.49	7.179
542.82	7.134
543.16	7.118
543.50	7.080
543.84	7.011
544.17	6.956
544.51	6.918
544.85	6.873
545.18	6.877
545.52	6.857
545.86	6.823
546.20	6.796
546.53	6.778
546.87	6.757
547.21	6.720
547.54	6.709
547.88	6.686
548.22	6.674
548.55	6.674
548.89	6.608
549.23	6.599
549.56	6.603
549.90	6.588
550.24	6.566
550.57	6.561
550.91	6.561
551.25	6.536
551.58	6.554
551.92	6.533
552.26	6.509
552.59	6.509
552.93	6.506
553.27	6.471
553.60	6.478
553.94	6.504
554.27	6.474
554.61	6.483
554.95	6.486
555.28	6.499
555.62	6.515
555.95	6.531
556.29	6.525
556.63	6.511
556.96	6.530
557.30	6.526
557.63	6.484
557.97	6.488
558.31	6.474
558.64	6.474
558.98	6.438
559.31	6.427
559.65	6.433
559.98	6.428
560.32	6.429
560.65	6.400
560.99	6.397
561.33	6.433
561.66	6.452
562.00	6.443
562.33	6.485
562.67	6.505
563.00	6.510
563.34	6.550
563.67	6.567
564.01	6.583
564.34	6.627
564.68	6.655
565.01	6.655
565.35	6.667
565.68	6.691
566.02	6.688
566.35	6.680
566.69	6.696
567.02	6.690
567.36	6.689
567.69	6.692
568.03	6.675
568.36	6.655
568.69	6.654
569.03	6.648
569.36	6.660
569.70	6.644
570.03	6.659
570.37	6.669
570.70	6.651
571.04	6.658
571.37	6.635
571.70	6.659
572.04	6.665
572.37	6.682
572.71	6.685
573.04	6.699
573.37	6.714
573.71	6.717
574.04	6.710
574.38	6.705
574.71	6.704
575.04	6.697
575.38	6.658
575.71	6.646
576.05	6.633
576.38	6.603
576.71	6.543
577.05	6.474
577.38	6.440
577.71	6.403
578.05	6.377
578.38	6.359
578.71	6.358
579.05	6.360
579.38	6.342
579.71	6.302
580.05	6.280
580.38	6.290
580.71	6.302
581.05	6.306
581.38	6.319
581.71	6.331
582.05	6.322
582.38	6.350
582.71	6.355
583.04	6.364
583.38	6.347
583.71	6.361
584.04	6.405
584.38	6.456
584.71	6.466
585.04	6.446
585.37	6.466
585.71	6.456
586.04	6.499
586.37	6.527
586.70	6.530
587.04	6.613
587.37	6.648
587.70	6.624
588.03	6.627
588.37	6.661
588.70	6.693
589.03	6.701
589.36	6.737
589.69	6.703
590.03	6.688
590.36	6.703
590.69	6.697
591.02	6.699
591.35	6.713
591.69	6.739
592.02	6.715
592.35	6.768
592.68	6.749
593.01	6.745
593.35	6.793
593.68	6.807
594.01	6.834
594.34	6.821
594.67	6.830
595.00	6.837
595.34	6.803
595.67	6.801
596.00	6.749
596.33	6.757
596.66	6.761
596.99	6.744
597.32	6.740
597.65	6.701
597.99	6.714
598.32	6.695
598.65	6.680
598.98	6.734
599.31	6.749
599.64	6.776
599.97	6.759
600.30	6.782
600.63	6.755
600.96	6.773
601.30	6.796
601.63	6.780
601.96	6.787
602.29	6.797
602.62	6.778
602.95	6.771
603.28	6.781
603.61	6.830
603.94	6.816
604.27	6.806
604.60	6.766
604.93	6.771
605.26	6.766
605.59	6.754
605.92	6.749
606.25	6.739
606.58	6.742
606.91	6.726
607.24	6.692
607.57	6.702
607.90	6.740
608.23	6.752
608.56	6.755
608.89	6.747
609.22	6.760
609.55	6.738
609.88	6.726
610.21	6.711
610.54	6.700
610.87	6.691
611.20	6.704
611.53	6.683
611.86	6.708
612.19	6.722
612.52	6.756
612.85	6.750
613.18	6.752
613.51	6.779
613.84	6.779
614.17	6.784
614.49	6.752
614.82	6.716
615.15	6.694
615.48	6.677
615.81	6.617
616.14	6.592
616.47	6.567
616.80	6.596
617.13	6.592
617.46	6.576
617.78	6.606
618.11	6.617
618.44	6.624
618.77	6.622
619.10	6.633
619.43	6.644
619.76	6.611
620.09	6.614
620.41	6.604
620.74	6.583
621.07	6.618
621.40	6.571
621.73	6.592
622.06	6.590
622.38	6.617
622.71	6.623
623.04	6.655
623.37	6.699
623.70	6.708
624.02	6.698
624.35	6.707
624.68	6.727
625.01	6.774
625.34	6.791
625.66	6.796
625.99	6.784
626.32	6.786
626.65	6.766
626.98	6.715
627.30	6.707
627.63	6.720
627.96	6.728
628.29	6.700
628.61	6.673
628.94	6.680
629.27	6.665
629.60	6.675
629.92	6.624
630.25	6.628
630.58	6.673
630.91	6.682
631.23	6.654
631.56	6.653
631.89	6.610
632.21	6.596
632.54	6.565
632.87	6.538
633.19	6.512
633.52	6.564
633.85	6.529
634.18	6.480
634.50	6.472
634.83	6.485
635.16	6.458
635.48	6.462
635.81	6.465
636.14	6.436
636.46	6.416
636.79	6.400
637.11	6.367
637.44	6.353
637.77	6.362
638.09	6.327
638.42	6.328
638.75	6.331
639.07	6.334
639.40	6.294
639.73	6.335
640.05	6.334
640.38	6.322
640.70	6.353
641.03	6.348
641.36	6.370
641.68	6.400
642.01	6.438
642.33	6.444
642.66	6.465
642.98	6.526
643.31	6.487
643.64	6.534
643.96	6.585
644.29	6.567
644.61	6.575
644.94	6.615
645.26	6.593
645.59	6.518
645.91	6.537
646.24	6.535
646.56	6.513
646.89	6.521
647.22	6.471
647.54	6.478
647.87	6.448
648.19	6.451
648.52	6.448
648.84	6.466
649.17	6.513
649.49	6.523
649.82	6.535
650.14	6.515
650.47	6.526
650.79	6.539
651.11	6.477
651.44	6.495
