OOIBase32 Version 2.0.0.6 Data File
++++++++++++++++++++++++++++++++++++
Date: 01-22-2012, 21:18:18
User: Valued Ocean Optics Customer
Spectrometer Serial Number: USB2E2917
Spectrometer Channel: Master
Integration Time (msec): 4
Spectra Averaged: 10
Boxcar Smoothing: 5
Correct for Electrical Dark: Enabled
Time Normalized: Disabled
Dual-beam Reference: Disabled
Reference Channel: Master
Temperature: Not acquired
Spectrometer Type: S2000
ADC Type: USB2000
Number of Pixels in File: 2048
Graph Title: 
>>>>>Begin Spectral Data<<<<<
180.30	0.000
180.67	0.000
181.03	-137.148
181.40	-31.388
181.77	-126.049
182.14	-139.237
182.51	292.871
182.88	60.226
183.25	192.609
183.62	148.731
183.99	19.655
184.36	141.712
184.73	124.480
185.10	56.353
185.46	40.001
185.83	30.303
186.20	57.829
186.57	128.393
186.94	150.596
187.31	81.463
187.68	-2615.669
188.05	199.019
188.42	193.228
188.78	-38.873
189.15	67.555
189.52	54.919
189.89	37.489
190.26	50.926
190.63	50.516
191.00	38.949
191.37	16.387
191.73	-9.297
192.10	-36.266
192.47	-49.431
192.84	-306.605
193.21	-544.871
193.58	-497.877
193.94	-522.380
194.31	-275.024
194.68	-134.411
195.05	-147.546
195.42	-158.080
195.79	-128.069
196.15	-92.766
196.52	-43.443
196.89	-21.926
197.26	-27.761
197.63	-35.020
198.00	0.636
198.36	2.866
198.73	54.741
199.10	60.973
199.47	40.253
199.84	39.268
200.20	32.358
200.57	2.317
200.94	34.019
201.31	34.295
201.68	40.820
202.04	37.283
202.41	28.691
202.78	19.193
203.15	25.870
203.51	31.136
203.88	31.969
204.25	16.676
204.62	16.108
204.98	5.627
205.35	-2.300
205.72	-35.629
206.09	-103.361
206.46	-64.941
206.82	-89.982
207.19	-135.562
207.56	-189.977
207.92	-211.803
208.29	-119.914
208.66	-104.781
209.03	-101.320
209.39	-57.408
209.76	-38.748
210.13	-6.879
210.50	-26.694
210.86	-45.399
211.23	-81.340
211.60	-108.035
211.96	-118.962
212.33	-231.814
212.70	6560.219
213.07	671.985
213.43	577.041
213.80	1604.566
214.17	327.438
214.53	1440.436
214.90	-119.298
215.27	-5.211
215.63	14.364
216.00	35.854
216.37	34.392
216.74	22.832
217.10	18.354
217.47	9.236
217.84	0.924
218.20	-2.022
218.57	3.794
218.94	-16.908
219.30	-17.834
219.67	-9.268
220.04	-8.206
220.40	-6.121
220.77	-0.925
221.13	6.156
221.50	16.966
221.87	16.957
222.23	22.962
222.60	17.588
222.97	17.187
223.33	14.121
223.70	0.435
224.07	-4.572
224.43	-7.199
224.80	-2.060
225.16	-4.805
225.53	-4.257
225.90	-1.987
226.26	-1.446
226.63	-0.906
226.99	-0.670
227.36	1.711
227.73	6.101
228.09	7.031
228.46	8.820
228.82	6.097
229.19	6.727
229.56	5.489
229.92	6.201
230.29	7.125
230.65	8.048
231.02	7.274
231.38	6.502
231.75	4.653
232.12	4.774
232.48	1.710
232.85	5.108
233.21	5.095
233.58	6.596
233.94	5.734
234.31	5.735
234.68	3.523
235.04	5.475
235.41	4.900
235.77	4.353
236.14	4.838
236.50	7.228
236.87	6.390
237.23	7.131
237.60	4.366
237.96	3.161
238.33	1.636
238.69	2.415
239.06	1.793
239.42	1.641
239.79	2.696
240.15	3.275
240.52	3.319
240.88	2.715
241.25	2.164
241.61	2.311
241.98	2.897
242.34	3.054
242.71	2.772
243.07	3.053
243.44	3.134
243.80	2.847
244.17	2.159
244.53	1.560
244.90	1.854
245.26	2.107
245.63	2.383
245.99	2.377
246.36	2.282
246.72	2.463
247.09	2.519
247.45	2.887
247.81	2.967
248.18	3.317
248.54	3.730
248.91	3.775
249.27	3.320
249.64	3.745
250.00	4.232
250.36	4.596
250.73	4.129
251.09	3.281
251.46	2.903
251.82	2.790
252.19	2.378
252.55	2.362
252.91	2.265
253.28	2.870
253.64	2.005
254.01	1.261
254.37	1.384
254.73	1.893
255.10	1.994
255.46	2.029
255.83	2.318
256.19	2.540
256.55	2.509
256.92	2.382
257.28	2.370
257.65	2.365
258.01	2.276
258.37	2.134
258.74	2.185
259.10	2.598
259.46	2.550
259.83	2.456
260.19	2.580
260.55	2.718
260.92	2.883
261.28	2.599
261.64	2.757
262.01	2.809
262.37	2.853
262.73	2.926
263.10	2.386
263.46	2.639
263.82	2.449
264.19	1.774
264.55	1.789
264.91	1.583
265.28	2.074
265.64	1.768
266.00	2.075
266.37	2.543
266.73	2.610
267.09	2.618
267.46	2.204
267.82	2.288
268.18	2.785
268.54	2.426
268.91	2.629
269.27	2.337
269.63	2.427
270.00	2.252
270.36	2.045
270.72	1.796
271.08	1.889
271.45	2.250
271.81	2.522
272.17	2.702
272.53	3.292
272.90	3.313
273.26	3.594
273.62	3.762
273.98	4.063
274.35	4.087
274.71	4.074
275.07	4.226
275.43	4.169
275.80	3.993
276.16	3.619
276.52	3.153
276.88	3.342
277.25	2.863
277.61	3.026
277.97	2.985
278.33	3.076
278.69	3.291
279.06	3.055
279.42	2.948
279.78	2.923
280.14	2.922
280.50	2.925
280.87	2.756
281.23	2.948
281.59	2.850
281.95	2.646
282.31	2.407
282.68	2.403
283.04	2.408
283.40	2.103
283.76	1.985
284.12	1.975
284.48	2.063
284.85	1.938
285.21	1.980
285.57	2.099
285.93	2.247
286.29	2.217
286.65	2.244
287.02	2.383
287.38	2.625
287.74	2.744
288.10	2.751
288.46	2.616
288.82	2.514
289.18	2.239
289.54	2.035
289.91	1.821
290.27	2.006
290.63	1.992
290.99	1.875
291.35	1.923
291.71	1.834
292.07	1.731
292.43	1.834
292.79	2.112
293.16	2.438
293.52	2.441
293.88	2.604
294.24	2.623
294.60	2.691
294.96	2.710
295.32	2.598
295.68	2.426
296.04	2.569
296.40	2.491
296.76	2.376
297.12	2.345
297.49	2.490
297.85	2.595
298.21	2.691
298.57	2.558
298.93	2.703
299.29	2.809
299.65	3.098
300.01	2.964
300.37	3.125
300.73	3.111
301.09	3.259
301.45	3.149
301.81	2.994
302.17	2.869
302.53	2.860
302.89	2.557
303.25	2.509
303.61	2.499
303.97	2.727
304.33	2.848
304.69	3.041
305.05	2.984
305.41	3.011
305.77	3.107
306.13	3.189
306.49	3.364
306.85	3.663
307.21	3.622
307.57	3.548
307.93	3.462
308.29	3.287
308.65	3.076
309.01	3.054
309.37	3.015
309.73	3.037
310.09	2.955
310.45	2.887
310.81	2.827
311.17	2.949
311.53	2.997
311.89	2.977
312.25	2.949
312.61	3.138
312.96	3.212
313.32	3.335
313.68	3.244
314.04	3.391
314.40	3.292
314.76	3.363
315.12	3.290
315.48	3.412
315.84	3.227
316.20	3.283
316.56	3.305
316.92	3.172
317.27	3.175
317.63	3.218
317.99	3.132
318.35	3.193
318.71	3.130
319.07	3.270
319.43	3.118
319.79	3.293
320.15	3.368
320.50	3.329
320.86	3.387
321.22	3.376
321.58	3.237
321.94	3.271
322.30	3.533
322.66	3.566
323.01	3.536
323.37	3.710
323.73	3.732
324.09	3.909
324.45	3.990
324.81	4.100
325.17	4.085
325.52	4.285
325.88	4.294
326.24	4.216
326.60	4.293
326.96	4.367
327.31	4.166
327.67	4.284
328.03	4.127
328.39	4.015
328.75	4.074
329.11	4.094
329.46	4.122
329.82	4.109
330.18	4.043
330.54	4.026
330.90	3.990
331.25	4.127
331.61	4.070
331.97	4.116
332.33	4.159
332.68	4.106
333.04	4.204
333.40	4.152
333.76	4.258
334.11	4.260
334.47	4.341
334.83	4.362
335.19	4.351
335.54	4.307
335.90	4.194
336.26	4.133
336.62	4.111
336.97	4.097
337.33	4.129
337.69	3.984
338.05	4.014
338.40	3.918
338.76	3.978
339.12	3.953
339.48	3.891
339.83	3.858
340.19	4.058
340.55	4.133
340.90	4.061
341.26	4.073
341.62	4.163
341.97	4.234
342.33	4.207
342.69	4.122
343.04	4.164
343.40	4.313
343.76	4.406
344.12	4.343
344.47	4.298
344.83	4.354
345.19	4.307
345.54	4.327
345.90	4.232
346.26	4.309
346.61	4.294
346.97	4.344
347.32	4.314
347.68	4.330
348.04	4.277
348.39	4.278
348.75	4.297
349.11	4.332
349.46	4.338
349.82	4.320
350.18	4.276
350.53	4.323
350.89	4.294
351.24	4.306
351.60	4.295
351.96	4.353
352.31	4.395
352.67	4.371
353.02	4.377
353.38	4.426
353.74	4.558
354.09	4.580
354.45	4.588
354.80	4.555
355.16	4.549
355.52	4.596
355.87	4.599
356.23	4.566
356.58	4.575
356.94	4.662
357.29	4.561
357.65	4.471
358.00	4.439
358.36	4.478
358.72	4.480
359.07	4.440
359.43	4.454
359.78	4.437
360.14	4.369
360.49	4.378
360.85	4.293
361.20	4.376
361.56	4.392
361.91	4.438
362.27	4.418
362.62	4.486
362.98	4.603
363.33	4.605
363.69	4.691
364.04	4.799
364.40	4.824
364.75	4.856
365.11	4.838
365.46	4.817
365.82	4.749
366.17	4.736
366.53	4.691
366.88	4.692
367.24	4.705
367.59	4.642
367.95	4.650
368.30	4.632
368.66	4.647
369.01	4.682
369.37	4.744
369.72	4.811
370.08	4.860
370.43	4.907
370.78	4.898
371.14	4.873
371.49	4.849
371.85	4.830
372.20	4.846
372.56	4.902
372.91	4.930
373.26	4.985
373.62	4.986
373.97	5.022
374.33	5.037
374.68	5.076
375.03	5.119
375.39	5.142
375.74	5.172
376.10	5.213
376.45	5.249
376.80	5.246
377.16	5.189
377.51	5.266
377.87	5.290
378.22	5.305
378.57	5.303
378.93	5.295
379.28	5.363
379.63	5.383
379.99	5.415
380.34	5.384
380.70	5.431
381.05	5.502
381.40	5.506
381.76	5.532
382.11	5.542
382.46	5.564
382.82	5.568
383.17	5.609
383.52	5.687
383.88	5.716
384.23	5.828
384.58	5.844
384.94	5.897
385.29	5.956
385.64	5.994
385.99	6.070
386.35	6.137
386.70	6.226
387.05	6.263
387.41	6.286
387.76	6.310
388.11	6.289
388.47	6.306
388.82	6.343
389.17	6.351
389.52	6.344
389.88	6.397
390.23	6.393
390.58	6.380
390.93	6.427
391.29	6.473
391.64	6.529
391.99	6.608
392.34	6.701
392.70	6.730
393.05	6.726
393.40	6.777
393.75	6.799
394.11	6.865
394.46	6.914
394.81	6.933
395.16	6.936
395.52	6.996
395.87	6.992
396.22	7.018
396.57	7.046
396.92	7.146
397.28	7.181
397.63	7.147
397.98	7.175
398.33	7.299
398.68	7.360
399.04	7.377
399.39	7.382
399.74	7.399
400.09	7.437
400.44	7.468
400.80	7.493
401.15	7.535
401.50	7.645
401.85	7.657
402.20	7.662
402.55	7.700
402.90	7.758
403.26	7.799
403.61	7.863
403.96	7.874
404.31	7.934
404.66	7.966
405.01	7.998
405.36	7.989
405.72	8.064
406.07	8.107
406.42	8.188
406.77	8.251
407.12	8.310
407.47	8.330
407.82	8.377
408.17	8.363
408.53	8.376
408.88	8.427
409.23	8.472
409.58	8.503
409.93	8.510
410.28	8.492
410.63	8.522
410.98	8.531
411.33	8.566
411.68	8.611
412.03	8.670
412.38	8.712
412.73	8.729
413.09	8.731
413.44	8.752
413.79	8.779
414.14	8.786
414.49	8.773
414.84	8.786
415.19	8.782
415.54	8.785
415.89	8.772
416.24	8.814
416.59	8.814
416.94	8.854
417.29	8.838
417.64	8.847
417.99	8.856
418.34	8.885
418.69	8.879
419.04	8.916
419.39	8.934
419.74	8.988
420.09	8.998
420.44	9.038
420.79	9.058
421.14	9.101
421.49	9.143
421.84	9.181
422.19	9.200
422.54	9.259
422.89	9.286
423.24	9.327
423.59	9.368
423.94	9.402
424.29	9.450
424.64	9.509
424.99	9.578
425.34	9.632
425.68	9.705
426.03	9.805
426.38	9.880
426.73	9.958
427.08	9.983
427.43	10.014
427.78	10.064
428.13	10.099
428.48	10.133
428.83	10.135
429.18	10.156
429.53	10.163
429.87	10.178
430.22	10.167
430.57	10.179
430.92	10.208
431.27	10.234
431.62	10.240
431.97	10.255
432.32	10.269
432.67	10.308
433.01	10.341
433.36	10.376
433.71	10.402
434.06	10.455
434.41	10.483
434.76	10.538
435.11	10.574
435.45	10.615
435.80	10.632
436.15	10.639
436.50	10.640
436.85	10.632
437.20	10.641
437.54	10.644
437.89	10.669
438.24	10.684
438.59	10.694
438.94	10.690
439.29	10.711
439.63	10.731
439.98	10.775
440.33	10.822
440.68	10.849
441.03	10.852
441.37	10.866
441.72	10.872
442.07	10.887
442.42	10.889
442.76	10.916
443.11	10.911
443.46	10.909
443.81	10.899
444.16	10.914
444.50	10.939
444.85	10.956
445.20	10.979
445.55	10.996
445.89	11.021
446.24	11.056
446.59	11.080
446.94	11.137
447.28	11.186
447.63	11.236
447.98	11.239
448.32	11.259
448.67	11.316
449.02	11.334
449.37	11.370
449.71	11.396
450.06	11.442
450.41	11.456
450.75	11.485
451.10	11.533
451.45	11.577
451.79	11.619
452.14	11.657
452.49	11.676
452.84	11.705
453.18	11.730
453.53	11.752
453.88	11.762
454.22	11.781
454.57	11.768
454.92	11.742
455.26	11.733
455.61	11.712
455.95	11.704
456.30	11.707
456.65	11.713
456.99	11.700
457.34	11.703
457.69	11.689
458.03	11.702
458.38	11.734
458.73	11.777
459.07	11.797
459.42	11.858
459.76	11.894
460.11	11.932
460.46	11.970
460.80	12.016
461.15	12.071
461.49	12.133
461.84	12.183
462.19	12.206
462.53	12.221
462.88	12.266
463.22	12.293
463.57	12.333
463.91	12.388
464.26	12.436
464.61	12.480
464.95	12.520
465.30	12.565
465.64	12.593
465.99	12.628
466.33	12.673
466.68	12.678
467.02	12.697
467.37	12.703
467.71	12.696
468.06	12.713
468.41	12.720
468.75	12.731
469.10	12.736
469.44	12.765
469.79	12.782
470.13	12.783
470.48	12.819
470.82	12.846
471.17	12.874
471.51	12.913
471.86	12.953
472.20	12.960
472.55	12.955
472.89	12.950
473.23	12.941
473.58	12.954
473.92	12.968
474.27	12.965
474.61	12.965
474.96	12.990
475.30	12.985
475.65	12.966
475.99	12.981
476.34	13.021
476.68	13.041
477.02	13.071
477.37	13.079
477.71	13.089
478.06	13.089
478.40	13.087
478.75	13.080
479.09	13.115
479.43	13.164
479.78	13.232
480.12	13.306
480.47	13.399
480.81	13.496
481.15	13.619
481.50	13.742
481.84	13.903
482.19	14.080
482.53	14.209
482.87	14.246
483.22	14.177
483.56	14.023
483.90	13.853
484.25	13.742
484.59	13.677
484.94	13.591
485.28	13.487
485.62	13.346
485.97	13.176
486.31	13.048
486.65	13.014
487.00	13.102
487.34	13.283
487.68	13.474
488.03	13.586
488.37	13.622
488.71	13.648
489.06	13.684
489.40	13.713
489.74	13.741
490.09	13.785
490.43	13.823
490.77	13.849
491.11	13.889
491.46	13.936
491.80	13.968
492.14	14.008
492.49	14.041
492.83	14.077
493.17	14.118
493.51	14.167
493.86	14.217
494.20	14.240
494.54	14.259
494.88	14.285
495.23	14.298
495.57	14.335
495.91	14.379
496.25	14.414
496.60	14.455
496.94	14.495
497.28	14.551
497.62	14.582
497.97	14.648
498.31	14.728
498.65	14.787
498.99	14.874
499.33	14.954
499.68	14.996
500.02	15.049
500.36	15.109
500.70	15.158
501.04	15.197
501.39	15.243
501.73	15.285
502.07	15.307
502.41	15.344
502.75	15.372
503.09	15.392
503.44	15.427
503.78	15.470
504.12	15.503
504.46	15.538
504.80	15.566
505.14	15.599
505.49	15.641
505.83	15.679
506.17	15.719
506.51	15.749
506.85	15.778
507.19	15.810
507.53	15.850
507.87	15.890
508.22	15.935
508.56	15.971
508.90	16.008
509.24	16.054
509.58	16.109
509.92	16.146
510.26	16.185
510.60	16.248
510.94	16.297
511.28	16.353
511.63	16.420
511.97	16.485
512.31	16.557
512.65	16.641
512.99	16.687
513.33	16.745
513.67	16.802
514.01	16.854
514.35	16.901
514.69	16.979
515.03	17.039
515.37	17.051
515.71	17.085
516.05	17.122
516.39	17.151
516.73	17.193
517.07	17.249
517.41	17.311
517.75	17.363
518.09	17.423
518.43	17.465
518.77	17.513
519.11	17.589
519.45	17.657
519.79	17.737
520.13	17.812
520.47	17.893
520.81	17.962
521.15	18.021
521.49	18.071
521.83	18.108
522.17	18.152
522.51	18.168
522.85	18.202
523.19	18.266
523.53	18.320
523.87	18.398
524.21	18.494
524.55	18.593
524.89	18.695
525.23	18.787
525.57	18.883
525.91	18.972
526.25	19.072
526.58	19.182
526.92	19.262
527.26	19.340
527.60	19.395
527.94	19.434
528.28	19.465
528.62	19.492
528.96	19.525
529.30	19.553
529.64	19.585
529.97	19.612
530.31	19.609
530.65	19.634
530.99	19.668
531.33	19.730
531.67	19.789
532.01	19.853
532.35	19.912
532.68	19.989
533.02	20.047
533.36	20.117
533.70	20.203
534.04	20.294
534.38	20.368
534.71	20.449
535.05	20.493
535.39	20.554
535.73	20.632
536.07	20.704
536.41	20.787
536.74	20.870
537.08	20.917
537.42	20.966
537.76	21.026
538.10	21.104
538.43	21.160
538.77	21.258
539.11	21.333
539.45	21.392
539.79	21.467
540.12	21.527
540.46	21.590
540.80	21.660
541.14	21.716
541.47	21.772
541.81	21.821
542.15	21.894
542.49	21.944
542.82	22.010
543.16	22.090
543.50	22.163
543.84	22.219
544.17	22.281
544.51	22.367
544.85	22.471
545.18	22.530
545.52	22.631
545.86	22.709
546.20	22.819
546.53	22.907
546.87	23.002
547.21	23.106
547.54	23.254
547.88	23.394
548.22	23.511
548.55	23.586
548.89	23.738
549.23	23.833
549.56	23.918
549.90	23.997
550.24	24.078
550.57	24.147
550.91	24.203
551.25	24.249
551.58	24.316
551.92	24.386
552.26	24.490
552.59	24.565
552.93	24.651
553.27	24.744
553.60	24.813
553.94	24.918
554.27	25.008
554.61	25.105
554.95	25.186
555.28	25.242
555.62	25.314
555.95	25.393
556.29	25.464
556.63	25.527
556.96	25.583
557.30	25.676
557.63	25.709
557.97	25.739
558.31	25.785
558.64	25.857
558.98	25.950
559.31	25.996
559.65	26.003
559.98	26.044
560.32	26.096
560.65	26.148
560.99	26.171
561.33	26.209
561.66	26.289
562.00	26.316
562.33	26.321
562.67	26.315
563.00	26.357
563.34	26.420
563.67	26.435
564.01	26.460
564.34	26.510
564.68	26.542
565.01	26.616
565.35	26.674
565.68	26.761
566.02	26.810
566.35	26.907
566.69	26.936
567.02	26.978
567.36	27.079
567.69	27.099
568.03	27.128
568.36	27.182
568.69	27.212
569.03	27.246
569.36	27.228
569.70	27.265
570.03	27.297
570.37	27.323
570.70	27.366
571.04	27.375
571.37	27.436
571.70	27.494
572.04	27.516
572.37	27.593
572.71	27.638
573.04	27.717
573.37	27.794
573.71	27.835
574.04	27.926
574.38	28.020
574.71	28.101
575.04	28.202
575.38	28.309
575.71	28.445
576.05	28.523
576.38	28.624
576.71	28.710
577.05	28.826
577.38	28.949
577.71	29.075
578.05	29.138
578.38	29.220
578.71	29.298
579.05	29.341
579.38	29.385
579.71	29.445
580.05	29.490
580.38	29.600
580.71	29.642
581.05	29.692
581.38	29.721
581.71	29.797
582.05	29.842
582.38	29.849
582.71	29.894
583.04	29.964
583.38	29.995
583.71	30.020
584.04	30.010
584.38	30.052
584.71	30.052
585.04	30.065
585.37	30.064
585.71	30.112
586.04	30.157
586.37	30.195
586.70	30.181
587.04	30.203
587.37	30.217
587.70	30.222
588.03	30.213
588.37	30.250
588.70	30.294
589.03	30.348
589.36	30.380
589.69	30.395
590.03	30.397
590.36	30.441
590.69	30.446
591.02	30.480
591.35	30.555
591.69	30.597
592.02	30.589
592.35	30.555
592.68	30.558
593.01	30.519
593.35	30.534
593.68	30.547
594.01	30.524
594.34	30.546
594.67	30.527
595.00	30.506
595.34	30.513
595.67	30.552
596.00	30.654
596.33	30.689
596.66	30.795
596.99	30.880
597.32	30.954
597.65	31.022
597.99	31.078
598.32	31.176
598.65	31.270
598.98	31.326
599.31	31.361
599.64	31.312
599.97	31.298
600.30	31.257
600.63	31.224
600.96	31.234
601.30	31.259
601.63	31.278
601.96	31.289
602.29	31.294
602.62	31.344
602.95	31.380
603.28	31.440
603.61	31.460
603.94	31.487
604.27	31.545
604.60	31.591
604.93	31.687
605.26	31.706
605.59	31.758
605.92	31.833
606.25	31.880
606.58	31.951
606.91	31.982
607.24	32.037
607.57	32.075
607.90	32.153
608.23	32.159
608.56	32.173
608.89	32.254
609.22	32.336
609.55	32.404
609.88	32.470
610.21	32.567
610.54	32.698
610.87	32.825
611.20	32.976
611.53	33.030
611.86	33.172
612.19	33.274
612.52	33.379
612.85	33.472
613.18	33.519
613.51	33.538
613.84	33.578
614.17	33.597
614.49	33.629
614.82	33.773
615.15	33.901
615.48	33.966
615.81	34.018
616.14	34.079
616.47	34.091
616.80	34.161
617.13	34.261
617.46	34.298
617.78	34.340
618.11	34.430
618.44	34.410
618.77	34.422
619.10	34.466
619.43	34.492
619.76	34.528
620.09	34.595
620.41	34.617
620.74	34.624
621.07	34.654
621.40	34.712
621.73	34.717
622.06	34.722
622.38	34.680
622.71	34.629
623.04	34.557
623.37	34.563
623.70	34.509
624.02	34.465
624.35	34.458
624.68	34.478
625.01	34.497
625.34	34.507
625.66	34.555
625.99	34.621
626.32	34.721
626.65	34.853
626.98	34.919
627.30	35.051
627.63	35.182
627.96	35.311
628.29	35.365
628.61	35.433
628.94	35.492
629.27	35.535
629.60	35.597
629.92	35.613
630.25	35.602
630.58	35.600
630.91	35.573
631.23	35.571
631.56	35.540
631.89	35.539
632.21	35.549
632.54	35.603
632.87	35.620
633.19	35.655
633.52	35.698
633.85	35.735
634.18	35.764
634.50	35.843
634.83	35.888
635.16	35.932
635.48	35.978
635.81	36.072
636.14	36.166
636.46	36.261
636.79	36.325
637.11	36.329
637.44	36.405
637.77	36.504
638.09	36.602
638.42	36.675
638.75	36.721
639.07	36.825
639.40	36.830
639.73	36.823
640.05	36.836
640.38	36.822
640.70	36.912
641.03	36.950
641.36	36.983
641.68	36.907
642.01	36.946
642.33	37.001
642.66	36.959
642.98	37.007
643.31	37.036
643.64	37.065
