OOIBase32 Version 2.0.0.6 Data File
++++++++++++++++++++++++++++++++++++
Date: 01-22-2012, 21:33:20
User: Valued Ocean Optics Customer
Spectrometer Serial Number: USB2E2917
Spectrometer Channel: Master
Integration Time (msec): 4
Spectra Averaged: 10
Boxcar Smoothing: 5
Correct for Electrical Dark: Enabled
Time Normalized: Disabled
Dual-beam Reference: Disabled
Reference Channel: Master
Temperature: Not acquired
Spectrometer Type: S2000
ADC Type: USB2000
Number of Pixels in File: 2048
Graph Title: 
>>>>>Begin Spectral Data<<<<<
180.30	0.000
180.67	0.000
181.03	6.980
181.40	153.815
181.77	131.865
182.14	-48.408
182.51	569.858
182.88	78.676
183.25	211.678
183.62	-67.250
183.99	83.744
184.36	403.962
184.73	61.795
185.10	-413.649
185.46	-11.481
185.83	119.404
186.20	109.695
186.57	235.633
186.94	133.723
187.31	68.057
187.68	-5153.444
188.05	-94.690
188.42	-77.149
188.78	193.611
189.15	133.616
189.52	117.225
189.89	93.897
190.26	75.869
190.63	78.982
191.00	62.055
191.37	36.415
191.73	1.655
192.10	-13.575
192.47	-19.748
192.84	-152.177
193.21	-258.234
193.58	-276.306
193.94	-333.297
194.31	-110.813
194.68	-55.361
195.05	-54.491
195.42	-83.997
195.79	-47.227
196.15	-30.752
196.52	-7.063
196.89	-12.376
197.26	-22.165
197.63	-43.486
198.00	-41.771
198.36	-125.549
198.73	-154.952
199.10	-29.979
199.47	39.629
199.84	28.057
200.20	1.320
200.57	4.745
200.94	39.552
201.31	42.235
201.68	44.726
202.04	43.561
202.41	47.653
202.78	54.067
203.15	48.068
203.51	42.077
203.88	51.705
204.25	39.457
204.62	21.796
204.98	9.398
205.35	-13.694
205.72	-30.847
206.09	-109.386
206.46	-101.684
206.82	-207.452
207.19	-207.515
207.56	-254.367
207.92	-301.353
208.29	-180.820
208.66	-131.037
209.03	-155.713
209.39	-78.408
209.76	-58.626
210.13	-19.784
210.50	-21.321
210.86	-33.289
211.23	-71.189
211.60	-80.840
211.96	-87.788
212.33	-245.986
212.70	8345.735
213.07	665.009
213.43	685.085
213.80	1957.701
214.17	382.928
214.53	1997.261
214.90	-193.103
215.27	-51.343
215.63	-64.226
216.00	-46.415
216.37	-6.334
216.74	6.353
217.10	7.162
217.47	12.776
217.84	1.337
218.20	-0.801
218.57	13.190
218.94	-12.935
219.30	-17.509
219.67	-9.792
220.04	-4.231
220.40	1.882
220.77	2.635
221.13	0.991
221.50	4.035
221.87	10.109
222.23	9.082
222.60	3.038
222.97	4.487
223.33	-1.589
223.70	-6.783
224.07	-10.021
224.43	-11.818
224.80	-10.986
225.16	-12.078
225.53	-12.239
225.90	-10.747
226.26	-7.538
226.63	-8.713
226.99	-7.738
227.36	-4.960
227.73	-5.122
228.09	-3.913
228.46	-1.909
228.82	-0.966
229.19	0.234
229.56	-0.628
229.92	0.608
230.29	-0.012
230.65	2.201
231.02	1.513
231.38	-0.025
231.75	0.489
232.12	0.280
232.48	-1.588
232.85	-1.387
233.21	-0.014
233.58	3.128
233.94	2.635
234.31	5.222
234.68	3.980
235.04	8.743
235.41	10.018
235.77	8.714
236.14	8.500
236.50	10.363
236.87	11.192
237.23	10.658
237.60	8.396
237.96	7.363
238.33	5.089
238.69	5.275
239.06	4.008
239.42	3.145
239.79	4.581
240.15	5.338
240.52	4.572
240.88	3.411
241.25	2.809
241.61	2.341
241.98	2.381
242.34	2.547
242.71	2.677
243.07	2.345
243.44	3.075
243.80	2.822
244.17	2.448
244.53	2.300
244.90	2.732
245.26	3.061
245.63	3.399
245.99	3.481
246.36	3.877
246.72	3.567
247.09	3.535
247.45	3.457
247.81	3.218
248.18	3.622
248.54	4.002
248.91	3.858
249.27	3.669
249.64	3.954
250.00	3.831
250.36	3.886
250.73	3.596
251.09	3.387
251.46	2.835
251.82	2.987
252.19	2.805
252.55	2.779
252.91	3.075
253.28	3.053
253.64	2.990
254.01	2.833
254.37	2.537
254.73	3.062
255.10	3.479
255.46	4.130
255.83	4.196
256.19	4.145
256.55	4.101
256.92	4.197
257.28	4.135
257.65	3.978
258.01	3.946
258.37	4.001
258.74	3.935
259.10	3.998
259.46	3.972
259.83	4.171
260.19	4.267
260.55	4.223
260.92	3.884
261.28	3.713
261.64	3.578
262.01	3.265
262.37	2.863
262.73	2.792
263.10	2.514
263.46	2.480
263.82	2.125
264.19	1.499
264.55	1.762
264.91	2.160
265.28	2.829
265.64	2.918
266.00	3.206
266.37	3.496
266.73	3.701
267.09	3.775
267.46	3.432
267.82	3.471
268.18	3.624
268.54	3.360
268.91	3.365
269.27	2.935
269.63	2.851
270.00	2.829
270.36	2.831
270.72	2.811
271.08	2.697
271.45	2.789
271.81	3.122
272.17	3.464
272.53	3.583
272.90	3.435
273.26	3.437
273.62	3.691
273.98	4.001
274.35	4.072
274.71	3.922
275.07	4.195
275.43	4.326
275.80	4.096
276.16	4.001
276.52	3.821
276.88	3.900
277.25	3.788
277.61	3.833
277.97	3.444
278.33	3.367
278.69	3.555
279.06	3.434
279.42	3.230
279.78	2.997
280.14	2.985
280.50	3.172
280.87	3.135
281.23	3.145
281.59	3.309
281.95	3.549
282.31	3.485
282.68	3.509
283.04	3.324
283.40	3.255
283.76	3.419
284.12	3.285
284.48	3.181
284.85	3.234
285.21	3.386
285.57	3.180
285.93	3.122
286.29	3.174
286.65	3.105
287.02	3.378
287.38	3.583
287.74	3.631
288.10	3.612
288.46	3.651
288.82	3.511
289.18	3.105
289.54	2.874
289.91	2.699
290.27	2.625
290.63	2.828
290.99	2.776
291.35	2.760
291.71	2.545
292.07	2.477
292.43	2.289
292.79	2.411
293.16	2.956
293.52	3.255
293.88	3.503
294.24	3.570
294.60	3.349
294.96	3.357
295.32	3.412
295.68	3.315
296.04	3.414
296.40	3.474
296.76	3.400
297.12	3.430
297.49	3.417
297.85	3.461
298.21	3.432
298.57	3.550
298.93	3.616
299.29	3.590
299.65	3.906
300.01	3.947
300.37	3.987
300.73	4.152
301.09	3.994
301.45	3.866
301.81	3.818
302.17	3.972
302.53	3.842
302.89	3.618
303.25	3.491
303.61	3.292
303.97	3.295
304.33	3.497
304.69	3.576
305.05	3.656
305.41	3.880
305.77	3.736
306.13	3.604
306.49	3.703
306.85	3.825
307.21	3.882
307.57	3.943
307.93	4.098
308.29	3.994
308.65	3.736
309.01	3.566
309.37	3.458
309.73	3.508
310.09	3.556
310.45	3.549
310.81	3.542
311.17	3.457
311.53	3.469
311.89	3.278
312.25	3.245
312.61	3.366
312.96	3.705
313.32	3.760
313.68	3.765
314.04	3.696
314.40	3.677
314.76	3.672
315.12	3.753
315.48	3.847
315.84	3.724
316.20	3.598
316.56	3.697
316.92	3.318
317.27	3.383
317.63	3.420
317.99	3.439
318.35	3.485
318.71	3.545
319.07	3.671
319.43	3.521
319.79	3.577
320.15	3.749
320.50	3.805
320.86	3.908
321.22	3.794
321.58	3.739
321.94	3.755
322.30	3.868
322.66	3.836
323.01	3.670
323.37	3.875
323.73	3.887
324.09	4.082
324.45	4.023
324.81	4.070
325.17	4.130
325.52	4.278
325.88	4.327
326.24	4.150
326.60	4.137
326.96	4.254
327.31	4.116
327.67	4.283
328.03	4.070
328.39	3.876
328.75	3.940
329.11	3.908
329.46	3.868
329.82	3.805
330.18	3.993
330.54	4.031
330.90	4.058
331.25	4.028
331.61	3.913
331.97	3.939
332.33	4.072
332.68	4.094
333.04	4.053
333.40	4.014
333.76	4.191
334.11	4.119
334.47	4.183
334.83	4.169
335.19	4.190
335.54	4.080
335.90	4.030
336.26	4.039
336.62	4.088
336.97	4.179
337.33	4.225
337.69	4.045
338.05	4.149
338.40	4.116
338.76	4.137
339.12	4.118
339.48	4.266
339.83	4.369
340.19	4.489
340.55	4.418
340.90	4.327
341.26	4.352
341.62	4.381
341.97	4.308
342.33	4.324
342.69	4.363
343.04	4.406
343.40	4.397
343.76	4.373
344.12	4.299
344.47	4.310
344.83	4.380
345.19	4.353
345.54	4.339
345.90	4.295
346.26	4.317
346.61	4.241
346.97	4.313
347.32	4.273
347.68	4.287
348.04	4.338
348.39	4.362
348.75	4.412
349.11	4.386
349.46	4.436
349.82	4.523
350.18	4.543
350.53	4.669
350.89	4.607
351.24	4.635
351.60	4.616
351.96	4.597
352.31	4.580
352.67	4.477
353.02	4.531
353.38	4.584
353.74	4.534
354.09	4.493
354.45	4.378
354.80	4.382
355.16	4.468
355.52	4.495
355.87	4.456
356.23	4.514
356.58	4.587
356.94	4.573
357.29	4.529
357.65	4.520
358.00	4.512
358.36	4.570
358.72	4.532
359.07	4.427
359.43	4.474
359.78	4.491
360.14	4.442
360.49	4.446
360.85	4.435
361.20	4.393
361.56	4.413
361.91	4.472
362.27	4.468
362.62	4.568
362.98	4.678
363.33	4.659
363.69	4.698
364.04	4.720
364.40	4.750
364.75	4.755
365.11	4.778
365.46	4.775
365.82	4.687
366.17	4.689
366.53	4.643
366.88	4.615
367.24	4.608
367.59	4.611
367.95	4.655
368.30	4.608
368.66	4.664
369.01	4.729
369.37	4.751
369.72	4.829
370.08	4.849
370.43	4.879
370.78	4.953
371.14	4.997
371.49	4.993
371.85	4.945
372.20	5.010
372.56	5.023
372.91	5.008
373.26	5.069
373.62	5.039
373.97	5.056
374.33	5.019
374.68	4.978
375.03	4.962
375.39	4.954
375.74	5.018
376.10	5.055
376.45	5.092
376.80	5.145
377.16	5.137
377.51	5.202
377.87	5.245
378.22	5.279
378.57	5.285
378.93	5.316
379.28	5.322
379.63	5.339
379.99	5.365
380.34	5.344
380.70	5.357
381.05	5.381
381.40	5.372
381.76	5.397
382.11	5.391
382.46	5.393
382.82	5.425
383.17	5.459
383.52	5.482
383.88	5.505
384.23	5.546
384.58	5.532
384.94	5.573
385.29	5.609
385.64	5.594
385.99	5.648
386.35	5.683
386.70	5.694
387.05	5.725
387.41	5.709
387.76	5.652
388.11	5.654
388.47	5.678
388.82	5.636
389.17	5.650
389.52	5.648
389.88	5.710
390.23	5.755
390.58	5.726
390.93	5.802
391.29	5.845
391.64	5.920
391.99	5.965
392.34	6.029
392.70	6.095
393.05	6.114
393.40	6.154
393.75	6.166
394.11	6.156
394.46	6.180
394.81	6.146
395.16	6.131
395.52	6.178
395.87	6.149
396.22	6.122
396.57	6.124
396.92	6.117
397.28	6.138
397.63	6.098
397.98	6.132
398.33	6.189
398.68	6.222
399.04	6.226
399.39	6.194
399.74	6.213
400.09	6.234
400.44	6.241
400.80	6.260
401.15	6.241
401.50	6.299
401.85	6.301
402.20	6.294
402.55	6.284
402.90	6.337
403.26	6.352
403.61	6.351
403.96	6.328
404.31	6.374
404.66	6.397
405.01	6.412
405.36	6.384
405.72	6.427
406.07	6.437
406.42	6.463
406.77	6.454
407.12	6.482
407.47	6.525
407.82	6.568
408.17	6.532
408.53	6.574
408.88	6.613
409.23	6.618
409.58	6.586
409.93	6.614
410.28	6.625
410.63	6.663
410.98	6.651
411.33	6.647
411.68	6.651
412.03	6.651
412.38	6.604
412.73	6.608
413.09	6.619
413.44	6.595
413.79	6.607
414.14	6.614
414.49	6.583
414.84	6.606
415.19	6.591
415.54	6.593
415.89	6.577
416.24	6.600
416.59	6.603
416.94	6.603
417.29	6.608
417.64	6.601
417.99	6.591
418.34	6.600
418.69	6.567
419.04	6.572
419.39	6.574
419.74	6.609
420.09	6.597
420.44	6.584
420.79	6.607
421.14	6.636
421.49	6.648
421.84	6.648
422.19	6.656
422.54	6.680
422.89	6.698
423.24	6.704
423.59	6.721
423.94	6.752
424.29	6.789
424.64	6.808
424.99	6.850
425.34	6.890
425.68	6.935
426.03	6.980
426.38	7.038
426.73	7.077
427.08	7.103
427.43	7.107
427.78	7.118
428.13	7.127
428.48	7.161
428.83	7.139
429.18	7.126
429.53	7.155
429.87	7.150
430.22	7.138
430.57	7.153
430.92	7.174
431.27	7.183
431.62	7.186
431.97	7.190
432.32	7.184
432.67	7.186
433.01	7.202
433.36	7.190
433.71	7.210
434.06	7.236
434.41	7.248
434.76	7.286
435.11	7.322
435.45	7.339
435.80	7.356
436.15	7.361
436.50	7.366
436.85	7.378
437.20	7.369
437.54	7.356
437.89	7.359
438.24	7.335
438.59	7.327
438.94	7.303
439.29	7.315
439.63	7.316
439.98	7.320
440.33	7.347
440.68	7.347
441.03	7.383
441.37	7.395
441.72	7.397
442.07	7.422
442.42	7.417
442.76	7.430
443.11	7.402
443.46	7.401
443.81	7.403
444.16	7.401
444.50	7.395
444.85	7.395
445.20	7.423
445.55	7.421
445.89	7.427
446.24	7.435
446.59	7.464
446.94	7.510
447.28	7.552
447.63	7.583
447.98	7.596
448.32	7.636
448.67	7.640
449.02	7.635
449.37	7.667
449.71	7.680
450.06	7.740
450.41	7.734
450.75	7.741
451.10	7.743
451.45	7.753
451.79	7.769
452.14	7.768
452.49	7.800
452.84	7.823
453.18	7.812
453.53	7.825
453.88	7.796
454.22	7.797
454.57	7.777
454.92	7.768
455.26	7.747
455.61	7.738
455.95	7.716
456.30	7.714
456.65	7.702
456.99	7.709
457.34	7.706
457.69	7.718
458.03	7.726
458.38	7.742
458.73	7.769
459.07	7.811
459.42	7.836
459.76	7.881
460.11	7.902
460.46	7.916
460.80	7.936
461.15	7.966
461.49	7.971
461.84	7.987
462.19	8.032
462.53	8.027
462.88	8.022
463.22	8.030
463.57	8.037
463.91	8.053
464.26	8.096
464.61	8.114
464.95	8.144
465.30	8.178
465.64	8.210
465.99	8.213
466.33	8.229
466.68	8.225
467.02	8.246
467.37	8.254
467.71	8.248
468.06	8.230
468.41	8.237
468.75	8.231
469.10	8.226
469.44	8.228
469.79	8.239
470.13	8.251
470.48	8.265
470.82	8.287
471.17	8.293
471.51	8.297
471.86	8.305
472.20	8.292
472.55	8.297
472.89	8.295
473.23	8.278
473.58	8.274
473.92	8.253
474.27	8.252
474.61	8.232
474.96	8.257
475.30	8.264
475.65	8.277
475.99	8.299
476.34	8.283
476.68	8.285
477.02	8.317
477.37	8.320
477.71	8.338
478.06	8.349
478.40	8.372
478.75	8.385
479.09	8.433
479.43	8.468
479.78	8.529
480.12	8.611
480.47	8.699
480.81	8.770
481.15	8.855
481.50	8.944
481.84	9.054
482.19	9.174
482.53	9.255
482.87	9.284
483.22	9.250
483.56	9.150
483.90	9.033
484.25	8.947
484.59	8.907
484.94	8.847
485.28	8.780
485.62	8.688
485.97	8.568
486.31	8.480
486.65	8.454
487.00	8.501
487.34	8.617
487.68	8.739
488.03	8.820
488.37	8.837
488.71	8.857
489.06	8.874
489.40	8.888
489.74	8.905
490.09	8.937
490.43	8.947
490.77	8.963
491.11	8.979
491.46	9.004
491.80	9.014
492.14	9.023
492.49	9.035
492.83	9.036
493.17	9.049
493.51	9.058
493.86	9.073
494.20	9.083
494.54	9.095
494.88	9.117
495.23	9.123
495.57	9.141
495.91	9.155
496.25	9.189
496.60	9.212
496.94	9.231
497.28	9.265
497.62	9.275
497.97	9.288
498.31	9.316
498.65	9.328
498.99	9.359
499.33	9.391
499.68	9.422
500.02	9.433
500.36	9.475
500.70	9.506
501.04	9.512
501.39	9.536
501.73	9.558
502.07	9.575
502.41	9.594
502.75	9.604
503.09	9.623
503.44	9.639
503.78	9.669
504.12	9.677
504.46	9.682
504.80	9.712
505.14	9.717
505.49	9.759
505.83	9.777
506.17	9.820
506.51	9.842
506.85	9.822
507.19	9.844
507.53	9.849
507.87	9.871
508.22	9.913
508.56	9.950
508.90	9.988
509.24	10.003
509.58	10.033
509.92	10.027
510.26	10.021
510.60	10.071
510.94	10.087
511.28	10.126
511.63	10.157
511.97	10.169
512.31	10.186
512.65	10.228
512.99	10.254
513.33	10.273
513.67	10.292
514.01	10.344
514.35	10.375
514.69	10.419
515.03	10.432
515.37	10.445
515.71	10.453
516.05	10.459
516.39	10.442
516.73	10.433
517.07	10.449
517.41	10.481
517.75	10.503
518.09	10.503
518.43	10.503
518.77	10.528
519.11	10.536
519.45	10.551
519.79	10.572
520.13	10.605
520.47	10.649
520.81	10.683
521.15	10.704
521.49	10.705
521.83	10.719
522.17	10.722
522.51	10.710
522.85	10.749
523.19	10.767
523.53	10.800
523.87	10.848
524.21	10.899
524.55	10.954
524.89	10.998
525.23	11.061
525.57	11.115
525.91	11.174
526.25	11.237
526.58	11.266
526.92	11.325
527.26	11.362
527.60	11.383
527.94	11.393
528.28	11.400
528.62	11.407
528.96	11.403
529.30	11.400
529.64	11.399
529.97	11.382
530.31	11.388
530.65	11.369
530.99	11.361
531.33	11.360
531.67	11.380
532.01	11.387
532.35	11.417
532.68	11.442
533.02	11.472
533.36	11.471
533.70	11.497
534.04	11.527
534.38	11.544
534.71	11.566
535.05	11.571
535.39	11.569
535.73	11.588
536.07	11.591
536.41	11.602
536.74	11.609
537.08	11.636
537.42	11.671
537.76	11.686
538.10	11.716
538.43	11.749
538.77	11.794
539.11	11.852
539.45	11.888
539.79	11.911
540.12	11.934
540.46	11.973
540.80	12.001
541.14	11.999
541.47	12.020
541.81	12.040
542.15	12.059
542.49	12.083
542.82	12.079
543.16	12.082
543.50	12.106
543.84	12.131
544.17	12.126
544.51	12.155
544.85	12.191
545.18	12.205
545.52	12.249
545.86	12.269
546.20	12.305
546.53	12.331
546.87	12.365
547.21	12.413
547.54	12.464
547.88	12.509
548.22	12.538
548.55	12.565
548.89	12.588
549.23	12.588
549.56	12.612
549.90	12.626
550.24	12.639
550.57	12.653
550.91	12.661
551.25	12.660
551.58	12.683
551.92	12.695
552.26	12.730
552.59	12.753
552.93	12.785
553.27	12.814
553.60	12.812
553.94	12.847
554.27	12.876
554.61	12.907
554.95	12.950
555.28	12.981
555.62	12.990
555.95	13.015
556.29	13.052
556.63	13.090
556.96	13.099
557.30	13.133
557.63	13.132
557.97	13.166
558.31	13.166
558.64	13.178
558.98	13.186
559.31	13.210
559.65	13.219
559.98	13.219
560.32	13.195
560.65	13.200
560.99	13.217
561.33	13.237
561.66	13.215
562.00	13.217
562.33	13.206
562.67	13.223
563.00	13.223
563.34	13.224
563.67	13.248
564.01	13.240
564.34	13.268
564.68	13.279
565.01	13.288
565.35	13.300
565.68	13.307
566.02	13.332
566.35	13.335
566.69	13.369
567.02	13.374
567.36	13.384
567.69	13.398
568.03	13.388
568.36	13.385
568.69	13.399
569.03	13.434
569.36	13.442
569.70	13.429
570.03	13.439
570.37	13.442
570.70	13.453
571.04	13.454
571.37	13.473
571.70	13.496
572.04	13.514
572.37	13.515
572.71	13.501
573.04	13.500
573.37	13.529
573.71	13.527
574.04	13.532
574.38	13.573
574.71	13.581
575.04	13.618
575.38	13.644
575.71	13.696
576.05	13.722
576.38	13.765
576.71	13.807
577.05	13.859
577.38	13.902
577.71	13.947
578.05	13.954
578.38	13.992
578.71	13.997
579.05	14.002
579.38	13.986
579.71	14.001
580.05	14.016
580.38	14.052
580.71	14.041
581.05	14.046
581.38	14.019
581.71	14.014
582.05	13.993
582.38	13.981
582.71	13.970
583.04	13.963
583.38	13.976
583.71	13.954
584.04	13.917
584.38	13.890
584.71	13.861
585.04	13.863
585.37	13.841
585.71	13.814
586.04	13.809
586.37	13.834
586.70	13.835
587.04	13.811
587.37	13.815
587.70	13.804
588.03	13.759
588.37	13.753
588.70	13.733
589.03	13.733
589.36	13.750
589.69	13.741
590.03	13.691
590.36	13.672
590.69	13.634
591.02	13.620
591.35	13.602
591.69	13.604
592.02	13.570
592.35	13.577
592.68	13.552
593.01	13.543
593.35	13.509
593.68	13.492
594.01	13.439
594.34	13.460
594.67	13.456
595.00	13.410
595.34	13.383
595.67	13.375
596.00	13.347
596.33	13.323
596.66	13.318
596.99	13.314
597.32	13.287
597.65	13.276
597.99	13.224
598.32	13.176
598.65	13.160
598.98	13.149
599.31	13.135
599.64	13.098
599.97	13.083
600.30	13.017
600.63	12.975
600.96	12.995
601.30	12.977
601.63	12.961
601.96	12.950
602.29	12.962
602.62	12.972
602.95	12.937
603.28	12.936
603.61	12.894
603.94	12.886
604.27	12.895
604.60	12.878
604.93	12.894
605.26	12.890
605.59	12.852
605.92	12.829
606.25	12.813
606.58	12.827
606.91	12.781
607.24	12.781
607.57	12.772
607.90	12.749
608.23	12.699
608.56	12.675
608.89	12.671
609.22	12.671
609.55	12.655
609.88	12.628
610.21	12.615
610.54	12.615
610.87	12.605
611.20	12.568
611.53	12.533
611.86	12.528
612.19	12.468
612.52	12.404
612.85	12.392
613.18	12.375
613.51	12.346
613.84	12.261
614.17	12.247
614.49	12.217
614.82	12.245
615.15	12.249
615.48	12.241
615.81	12.257
616.14	12.256
616.47	12.223
616.80	12.237
617.13	12.242
617.46	12.284
617.78	12.255
618.11	12.272
618.44	12.258
618.77	12.237
619.10	12.198
619.43	12.186
619.76	12.179
620.09	12.163
620.41	12.142
620.74	12.149
621.07	12.107
621.40	12.119
621.73	12.079
622.06	12.066
622.38	12.083
622.71	12.075
623.04	12.041
623.37	12.046
623.70	12.031
624.02	11.991
624.35	11.957
624.68	11.973
625.01	11.936
625.34	11.940
625.66	11.912
625.99	11.884
626.32	11.900
626.65	11.916
626.98	11.882
627.30	11.925
627.63	11.939
627.96	11.914
628.29	11.890
628.61	11.865
628.94	11.855
629.27	11.868
629.60	11.850
629.92	11.817
630.25	11.797
630.58	11.764
630.91	11.671
631.23	11.613
631.56	11.603
631.89	11.563
632.21	11.611
632.54	11.586
632.87	11.531
633.19	11.531
633.52	11.505
633.85	11.484
634.18	11.487
634.50	11.478
634.83	11.478
635.16	11.433
635.48	11.448
635.81	11.393
636.14	11.373
636.46	11.366
636.79	11.277
637.11	11.277
637.44	11.228
637.77	11.184
638.09	11.139
638.42	11.125
638.75	11.069
639.07	10.987
639.40	10.937
639.73	10.902
640.05	10.814
640.38	10.844
640.70	10.767
641.03	10.736
641.36	10.747
641.68	10.753
642.01	10.737
642.33	10.802
642.66	10.839
642.98	10.829
643.31	10.798
643.64	10.841
643.96	10.805
644.29	10.806
644.61	10.805
644.94	10.788
645.26	10.831
645.59	10.801
645.91	10.801
646.24	10.801
646.56	10.793
646.89	10.844
647.22	10.863
647.54	10.852
647.87	10.843
648.19	10.823
648.52	10.817
