OOIBase32 Version 2.0.0.6 Data File
++++++++++++++++++++++++++++++++++++
Date: 01-20-2012, 23:05:40
User: Valued Ocean Optics Customer
Spectrometer Serial Number: USB2E2917
Spectrometer Channel: Master
Integration Time (msec): 3
Spectra Averaged: 10
Boxcar Smoothing: 5
Correct for Electrical Dark: Enabled
Time Normalized: Disabled
Dual-beam Reference: Disabled
Reference Channel: Master
Temperature: Not acquired
Spectrometer Type: S2000
ADC Type: USB2000
Number of Pixels in File: 2048
Graph Title: 
>>>>>Begin Spectral Data<<<<<
180.30	0.000
180.67	0.000
181.03	194.312
181.40	83.096
181.77	-7.167
182.14	19.986
182.51	-431.339
182.88	219.209
183.25	-82.437
183.62	21.941
183.99	-46.651
184.36	-566.297
184.73	187.843
185.10	59.257
185.46	-184.972
185.83	111.253
186.20	-68.057
186.57	36.389
186.94	273.569
187.31	112.434
187.68	397.473
188.05	1.098
188.42	20.379
188.78	-3.802
189.15	-5.564
189.52	-13.753
189.89	7.397
190.26	19.074
190.63	-4.273
191.00	-41.721
191.37	-42.415
191.73	-48.854
192.10	-12.767
192.47	-7.650
192.84	-15.756
193.21	-36.722
193.58	-39.315
193.94	-66.382
194.31	-70.028
194.68	-38.740
195.05	-23.549
195.42	-14.568
195.79	-16.301
196.15	-36.930
196.52	-69.545
196.89	-70.839
197.26	-73.848
197.63	-71.424
198.00	-32.993
198.36	-27.818
198.73	-39.277
199.10	-36.041
199.47	-41.587
199.84	-50.754
200.20	-43.545
200.57	-29.445
200.94	-30.750
201.31	-31.880
201.68	-26.188
202.04	-21.252
202.41	1.275
202.78	2.040
203.15	23.781
203.51	41.034
203.88	49.107
204.25	9.465
204.62	-22.166
204.98	-34.578
205.35	-27.818
205.72	-25.223
206.09	-27.559
206.46	-59.671
206.82	-43.368
207.19	-46.352
207.56	-137.453
207.92	-123.869
208.29	-30.572
208.66	7.207
209.03	40.150
209.39	9.447
209.76	21.527
210.13	36.382
210.50	45.599
210.86	31.493
211.23	18.705
211.60	14.183
211.96	-0.621
212.33	-4.956
212.70	-4.684
213.07	11.699
213.43	53.680
213.80	45.697
214.17	42.818
214.53	50.763
214.90	53.083
215.27	80.231
215.63	80.219
216.00	122.016
216.37	82.454
216.74	74.378
217.10	59.278
217.47	37.595
217.84	36.429
218.20	32.253
218.57	29.598
218.94	28.465
219.30	20.935
219.67	22.392
220.04	13.275
220.40	15.710
220.77	15.750
221.13	5.667
221.50	-3.974
221.87	-0.537
222.23	6.284
222.60	15.070
222.97	18.757
223.33	19.769
223.70	19.090
224.07	17.483
224.43	17.432
224.80	15.732
225.16	14.130
225.53	11.676
225.90	10.445
226.26	7.380
226.63	4.438
226.99	4.926
227.36	7.213
227.73	4.827
228.09	4.381
228.46	1.288
228.82	4.354
229.19	4.847
229.56	8.198
229.92	10.909
230.29	10.178
230.65	7.689
231.02	6.134
231.38	3.662
231.75	5.638
232.12	6.926
232.48	11.134
232.85	10.517
233.21	10.137
233.58	6.670
233.94	3.784
234.31	6.922
234.68	10.961
235.04	11.528
235.41	11.374
235.77	9.975
236.14	8.607
236.50	7.656
236.87	6.040
237.23	4.762
237.60	5.172
237.96	3.901
238.33	3.428
238.69	3.369
239.06	3.624
239.42	4.746
239.79	4.875
240.15	4.524
240.52	4.801
240.88	4.862
241.25	6.156
241.61	5.546
241.98	5.935
242.34	5.797
242.71	5.923
243.07	5.610
243.44	5.265
243.80	5.570
244.17	5.728
244.53	5.121
244.90	5.041
245.26	4.236
245.63	4.262
245.99	4.078
246.36	4.158
246.72	3.834
247.09	4.028
247.45	4.141
247.81	3.625
248.18	3.509
248.54	4.207
248.91	4.155
249.27	4.662
249.64	4.816
250.00	4.638
250.36	4.551
250.73	4.617
251.09	4.245
251.46	3.858
251.82	4.119
252.19	3.747
252.55	3.673
252.91	4.028
253.28	4.123
253.64	4.652
254.01	4.998
254.37	4.706
254.73	4.936
255.10	4.892
255.46	4.545
255.83	4.657
256.19	4.969
256.55	4.439
256.92	4.439
257.28	4.350
257.65	4.414
258.01	4.151
258.37	3.957
258.74	3.797
259.10	3.844
259.46	3.896
259.83	3.880
260.19	3.858
260.55	3.738
260.92	3.701
261.28	3.782
261.64	3.708
262.01	3.921
262.37	4.011
262.73	4.087
263.10	4.052
263.46	4.746
263.82	4.738
264.19	4.743
264.55	4.493
264.91	4.156
265.28	3.652
265.64	2.942
266.00	2.750
266.37	2.628
266.73	2.585
267.09	2.717
267.46	2.587
267.82	2.463
268.18	2.397
268.54	2.581
268.91	2.489
269.27	2.598
269.63	2.817
270.00	2.738
270.36	2.809
270.72	2.957
271.08	3.137
271.45	2.550
271.81	2.526
272.17	2.453
272.53	3.075
272.90	3.250
273.26	3.594
273.62	4.006
273.98	4.234
274.35	4.447
274.71	4.194
275.07	3.816
275.43	4.227
275.80	4.218
276.16	4.136
276.52	3.855
276.88	4.251
277.25	4.312
277.61	3.885
277.97	3.763
278.33	3.631
278.69	3.573
279.06	3.857
279.42	3.654
279.78	3.693
280.14	3.729
280.50	3.667
280.87	3.251
281.23	2.700
281.59	2.926
281.95	3.130
282.31	3.232
282.68	3.349
283.04	3.350
283.40	3.421
283.76	3.467
284.12	3.574
284.48	3.471
284.85	3.379
285.21	3.402
285.57	3.102
285.93	2.987
286.29	2.896
286.65	2.967
287.02	2.709
287.38	2.714
287.74	2.558
288.10	2.730
288.46	2.719
288.82	2.843
289.18	3.066
289.54	3.148
289.91	3.028
290.27	2.891
290.63	2.860
290.99	2.778
291.35	2.802
291.71	2.996
292.07	2.973
292.43	3.025
292.79	2.915
293.16	2.989
293.52	3.287
293.88	3.498
294.24	3.773
294.60	3.958
294.96	4.077
295.32	4.135
295.68	4.171
296.04	4.174
296.40	4.284
296.76	4.461
297.12	4.616
297.49	4.592
297.85	4.725
298.21	4.958
298.57	4.922
298.93	5.055
299.29	5.242
299.65	5.372
300.01	5.640
300.37	5.873
300.73	6.040
301.09	6.135
301.45	6.277
301.81	6.419
302.17	6.375
302.53	6.764
302.89	7.034
303.25	6.936
303.61	7.171
303.97	7.307
304.33	7.392
304.69	7.642
305.05	7.902
305.41	7.902
305.77	7.933
306.13	7.882
306.49	7.772
306.85	7.867
307.21	8.166
307.57	8.069
307.93	8.204
308.29	8.295
308.65	8.377
309.01	8.395
309.37	8.682
309.73	8.745
310.09	9.041
310.45	9.218
310.81	9.217
311.17	9.313
311.53	9.458
311.89	9.507
312.25	9.584
312.61	9.673
312.96	9.980
313.32	10.114
313.68	10.425
314.04	10.516
314.40	10.652
314.76	10.935
315.12	11.003
315.48	11.157
315.84	11.159
316.20	11.394
316.56	11.383
316.92	11.100
317.27	10.965
317.63	10.887
317.99	10.803
318.35	10.720
318.71	10.531
319.07	10.603
319.43	10.658
319.79	10.497
320.15	10.282
320.50	10.239
320.86	10.365
321.22	10.421
321.58	10.437
321.94	10.433
322.30	10.505
322.66	10.553
323.01	10.468
323.37	10.365
323.73	10.502
324.09	10.600
324.45	10.788
324.81	10.774
325.17	10.799
325.52	10.923
325.88	11.007
326.24	10.997
326.60	10.911
326.96	11.013
327.31	11.049
327.67	10.956
328.03	10.939
328.39	10.867
328.75	10.741
329.11	10.676
329.46	10.488
329.82	10.463
330.18	10.426
330.54	10.552
330.90	10.421
331.25	10.388
331.61	10.447
331.97	10.428
332.33	10.303
332.68	10.378
333.04	10.390
333.40	10.378
333.76	10.264
334.11	10.127
334.47	10.096
334.83	10.006
335.19	9.920
335.54	9.831
335.90	9.707
336.26	9.662
336.62	9.528
336.97	9.435
337.33	9.407
337.69	9.341
338.05	9.321
338.40	9.285
338.76	9.385
339.12	9.455
339.48	9.451
339.83	9.425
340.19	9.369
340.55	9.391
340.90	9.412
341.26	9.343
341.62	9.345
341.97	9.311
342.33	9.272
342.69	9.133
343.04	9.092
343.40	9.089
343.76	9.065
344.12	9.124
344.47	9.094
344.83	9.069
345.19	9.004
345.54	8.985
345.90	8.958
346.26	8.930
346.61	8.817
346.97	8.757
347.32	8.650
347.68	8.677
348.04	8.613
348.39	8.570
348.75	8.526
349.11	8.586
349.46	8.531
349.82	8.520
350.18	8.506
350.53	8.537
350.89	8.571
351.24	8.611
351.60	8.629
351.96	8.603
352.31	8.664
352.67	8.649
353.02	8.612
353.38	8.620
353.74	8.576
354.09	8.482
354.45	8.441
354.80	8.325
355.16	8.231
355.52	8.065
355.87	7.959
356.23	7.873
356.58	7.851
356.94	7.782
357.29	7.696
357.65	7.677
358.00	7.663
358.36	7.705
358.72	7.629
359.07	7.595
359.43	7.609
359.78	7.598
360.14	7.595
360.49	7.511
360.85	7.483
361.20	7.443
361.56	7.383
361.91	7.378
362.27	7.390
362.62	7.398
362.98	7.420
363.33	7.384
363.69	7.411
364.04	7.330
364.40	7.302
364.75	7.320
365.11	7.361
365.46	7.346
365.82	7.284
366.17	7.195
366.53	7.187
366.88	7.108
367.24	7.133
367.59	7.126
367.95	7.117
368.30	7.114
368.66	7.049
369.01	6.970
369.37	6.990
369.72	6.991
370.08	6.962
370.43	6.881
370.78	6.912
371.14	6.852
371.49	6.774
371.85	6.712
372.20	6.741
372.56	6.697
372.91	6.727
373.26	6.663
373.62	6.673
373.97	6.678
374.33	6.693
374.68	6.622
375.03	6.624
375.39	6.618
375.74	6.563
376.10	6.537
376.45	6.598
376.80	6.570
377.16	6.543
377.51	6.503
377.87	6.481
378.22	6.404
378.57	6.411
378.93	6.302
379.28	6.231
379.63	6.318
379.99	6.241
380.34	6.152
380.70	6.106
381.05	6.110
381.40	6.073
381.76	6.051
382.11	6.080
382.46	6.040
382.82	6.081
383.17	6.121
383.52	6.068
383.88	6.085
384.23	6.082
384.58	6.022
384.94	6.003
385.29	5.952
385.64	5.922
385.99	5.883
386.35	5.863
386.70	5.774
387.05	5.726
387.41	5.636
387.76	5.590
388.11	5.534
388.47	5.538
388.82	5.524
389.17	5.558
389.52	5.525
389.88	5.540
390.23	5.508
390.58	5.487
390.93	5.444
391.29	5.464
391.64	5.442
391.99	5.438
392.34	5.429
392.70	5.385
393.05	5.334
393.40	5.278
393.75	5.221
394.11	5.208
394.46	5.242
394.81	5.245
395.16	5.177
395.52	5.100
395.87	5.035
396.22	4.964
396.57	4.888
396.92	4.799
397.28	4.808
397.63	4.752
397.98	4.689
398.33	4.630
398.68	4.537
399.04	4.548
399.39	4.556
399.74	4.556
400.09	4.572
400.44	4.606
400.80	4.622
401.15	4.572
401.50	4.539
401.85	4.502
402.20	4.452
402.55	4.495
402.90	4.447
403.26	4.397
403.61	4.376
403.96	4.328
404.31	4.272
404.66	4.266
405.01	4.239
405.36	4.214
405.72	4.199
406.07	4.215
406.42	4.160
406.77	4.179
407.12	4.168
407.47	4.150
407.82	4.134
408.17	4.187
408.53	4.152
408.88	4.147
409.23	4.153
409.58	4.133
409.93	4.111
410.28	4.097
410.63	4.090
410.98	4.102
411.33	4.073
411.68	4.055
412.03	3.973
412.38	3.960
412.73	3.952
413.09	3.960
413.44	3.949
413.79	3.959
414.14	3.950
414.49	3.931
414.84	3.912
415.19	3.913
415.54	3.930
415.89	3.919
416.24	3.912
416.59	3.902
416.94	3.876
417.29	3.877
417.64	3.856
417.99	3.864
418.34	3.845
418.69	3.856
419.04	3.831
419.39	3.815
419.74	3.818
420.09	3.801
420.44	3.789
420.79	3.800
421.14	3.789
421.49	3.787
421.84	3.774
422.19	3.782
422.54	3.757
422.89	3.779
423.24	3.772
423.59	3.756
423.94	3.753
424.29	3.773
424.64	3.753
424.99	3.745
425.34	3.719
425.68	3.695
426.03	3.668
426.38	3.654
426.73	3.618
427.08	3.620
427.43	3.623
427.78	3.664
428.13	3.659
428.48	3.645
428.83	3.664
429.18	3.665
429.53	3.685
429.87	3.686
430.22	3.686
430.57	3.699
430.92	3.685
431.27	3.689
431.62	3.667
431.97	3.645
432.32	3.653
432.67	3.672
433.01	3.674
433.36	3.673
433.71	3.664
434.06	3.671
434.41	3.655
434.76	3.662
435.11	3.660
435.45	3.669
435.80	3.670
436.15	3.693
436.50	3.682
436.85	3.695
437.20	3.698
437.54	3.742
437.89	3.768
438.24	3.780
438.59	3.786
438.94	3.800
439.29	3.786
439.63	3.810
439.98	3.795
440.33	3.812
440.68	3.825
441.03	3.811
441.37	3.781
441.72	3.800
442.07	3.809
442.42	3.814
442.76	3.807
443.11	3.823
443.46	3.813
443.81	3.814
444.16	3.814
444.50	3.819
444.85	3.837
445.20	3.851
445.55	3.828
445.89	3.830
446.24	3.839
446.59	3.841
446.94	3.860
447.28	3.863
447.63	3.879
447.98	3.868
448.32	3.871
448.67	3.862
449.02	3.831
449.37	3.819
449.71	3.804
450.06	3.789
450.41	3.783
450.75	3.763
451.10	3.773
451.45	3.772
451.79	3.783
452.14	3.785
452.49	3.793
452.84	3.795
453.18	3.787
453.53	3.807
453.88	3.813
454.22	3.821
454.57	3.814
454.92	3.826
455.26	3.833
455.61	3.853
455.95	3.874
456.30	3.887
456.65	3.924
456.99	3.958
457.34	3.978
457.69	3.989
458.03	4.007
458.38	4.011
458.73	4.013
459.07	4.030
459.42	4.008
459.76	4.003
460.11	4.003
460.46	3.992
460.80	4.006
461.15	3.980
461.49	3.980
461.84	3.992
462.19	4.002
462.53	4.002
462.88	4.002
463.22	4.028
463.57	4.019
463.91	4.020
464.26	4.034
464.61	4.038
464.95	4.066
465.30	4.063
465.64	4.050
465.99	4.068
466.33	4.080
466.68	4.068
467.02	4.086
467.37	4.092
467.71	4.117
468.06	4.108
468.41	4.100
468.75	4.077
469.10	4.059
469.44	4.060
469.79	4.042
470.13	4.030
470.48	4.031
470.82	4.008
471.17	3.996
471.51	3.971
471.86	3.982
472.20	3.972
472.55	3.977
472.89	4.024
473.23	4.029
473.58	4.031
473.92	4.025
474.27	4.014
474.61	4.005
474.96	4.024
475.30	4.014
475.65	3.987
475.99	3.962
476.34	3.968
476.68	3.919
477.02	3.909
477.37	3.900
477.71	3.904
478.06	3.911
478.40	3.928
478.75	3.932
479.09	3.950
479.43	3.982
479.78	4.030
480.12	4.050
480.47	4.095
480.81	4.114
481.15	4.139
481.50	4.167
481.84	4.198
482.19	4.226
482.53	4.237
482.87	4.259
483.22	4.270
483.56	4.268
483.90	4.263
484.25	4.253
484.59	4.242
484.94	4.230
485.28	4.204
485.62	4.172
485.97	4.146
486.31	4.134
486.65	4.112
487.00	4.095
487.34	4.088
487.68	4.087
488.03	4.070
488.37	4.064
488.71	4.063
489.06	4.065
489.40	4.078
489.74	4.071
490.09	4.065
490.43	4.053
490.77	4.041
491.11	4.027
491.46	4.024
491.80	4.026
492.14	4.030
492.49	4.016
492.83	3.999
493.17	3.972
493.51	3.945
493.86	3.940
494.20	3.944
494.54	3.961
494.88	3.962
495.23	3.951
495.57	3.951
495.91	3.952
496.25	3.974
496.60	3.991
496.94	4.018
497.28	4.058
497.62	4.075
497.97	4.082
498.31	4.078
498.65	4.103
498.99	4.135
499.33	4.146
499.68	4.176
500.02	4.176
500.36	4.203
500.70	4.220
501.04	4.203
501.39	4.210
501.73	4.236
502.07	4.268
502.41	4.272
502.75	4.289
503.09	4.335
503.44	4.335
503.78	4.367
504.12	4.380
504.46	4.418
504.80	4.460
505.14	4.499
505.49	4.533
505.83	4.533
506.17	4.558
506.51	4.571
506.85	4.585
507.19	4.623
507.53	4.640
507.87	4.670
508.22	4.657
508.56	4.681
508.90	4.674
509.24	4.673
509.58	4.693
509.92	4.709
510.26	4.720
510.60	4.738
510.94	4.745
511.28	4.750
511.63	4.755
511.97	4.770
512.31	4.778
512.65	4.798
512.99	4.827
513.33	4.848
513.67	4.862
514.01	4.888
514.35	4.889
514.69	4.910
515.03	4.942
515.37	4.960
515.71	5.001
516.05	5.016
516.39	5.030
516.73	5.030
517.07	5.038
517.41	5.037
517.75	5.040
518.09	5.043
518.43	5.031
518.77	5.005
519.11	4.984
519.45	4.953
519.79	4.926
520.13	4.920
520.47	4.919
520.81	4.912
521.15	4.917
521.49	4.912
521.83	4.919
522.17	4.927
522.51	4.955
522.85	4.985
523.19	4.994
523.53	5.053
523.87	5.096
524.21	5.122
524.55	5.155
524.89	5.182
525.23	5.215
525.57	5.225
525.91	5.240
526.25	5.258
526.58	5.278
526.92	5.301
527.26	5.292
527.60	5.294
527.94	5.292
528.28	5.285
528.62	5.268
528.96	5.238
529.30	5.221
529.64	5.200
529.97	5.167
530.31	5.125
530.65	5.078
530.99	5.042
531.33	4.998
531.67	4.975
532.01	4.938
532.35	4.908
532.68	4.898
533.02	4.878
533.36	4.867
533.70	4.843
534.04	4.811
534.38	4.789
534.71	4.772
535.05	4.740
535.39	4.698
535.73	4.693
536.07	4.680
536.41	4.666
536.74	4.666
537.08	4.662
537.42	4.678
537.76	4.692
538.10	4.707
538.43	4.711
538.77	4.733
539.11	4.763
539.45	4.764
539.79	4.771
540.12	4.773
540.46	4.778
540.80	4.756
541.14	4.750
541.47	4.725
541.81	4.705
542.15	4.673
542.49	4.647
542.82	4.599
543.16	4.576
543.50	4.555
543.84	4.504
544.17	4.452
544.51	4.426
544.85	4.387
545.18	4.388
545.52	4.370
545.86	4.361
546.20	4.345
546.53	4.327
546.87	4.281
547.21	4.236
547.54	4.224
547.88	4.216
548.22	4.220
548.55	4.207
548.89	4.175
549.23	4.175
549.56	4.165
549.90	4.158
550.24	4.158
550.57	4.158
550.91	4.158
551.25	4.168
551.58	4.160
551.92	4.147
552.26	4.125
552.59	4.113
552.93	4.083
553.27	4.087
553.60	4.067
553.94	4.052
554.27	4.027
554.61	4.030
554.95	4.028
555.28	4.030
555.62	4.033
555.95	4.046
556.29	4.064
556.63	4.075
556.96	4.071
557.30	4.079
557.63	4.059
557.97	4.099
558.31	4.103
558.64	4.095
558.98	4.118
559.31	4.110
559.65	4.099
559.98	4.108
560.32	4.124
560.65	4.128
560.99	4.135
561.33	4.169
561.66	4.168
562.00	4.171
562.33	4.193
562.67	4.210
563.00	4.223
563.34	4.262
563.67	4.264
564.01	4.289
564.34	4.311
564.68	4.315
565.01	4.332
565.35	4.370
565.68	4.401
566.02	4.411
566.35	4.386
566.69	4.424
567.02	4.427
567.36	4.469
567.69	4.471
568.03	4.474
568.36	4.496
568.69	4.491
569.03	4.489
569.36	4.486
569.70	4.508
570.03	4.550
570.37	4.536
570.70	4.559
571.04	4.553
571.37	4.537
571.70	4.548
572.04	4.548
572.37	4.575
572.71	4.570
573.04	4.589
573.37	4.579
573.71	4.570
574.04	4.603
574.38	4.585
574.71	4.573
575.04	4.592
575.38	4.608
575.71	4.616
576.05	4.611
576.38	4.633
576.71	4.620
577.05	4.605
577.38	4.606
577.71	4.554
578.05	4.536
578.38	4.549
578.71	4.553
579.05	4.518
579.38	4.512
579.71	4.506
580.05	4.479
580.38	4.458
580.71	4.485
581.05	4.500
581.38	4.532
581.71	4.578
582.05	4.595
582.38	4.646
582.71	4.643
583.04	4.674
583.38	4.687
583.71	4.710
584.04	4.725
584.38	4.733
584.71	4.746
585.04	4.738
585.37	4.758
585.71	4.776
586.04	4.769
586.37	4.818
586.70	4.799
587.04	4.818
587.37	4.831
587.70	4.910
588.03	4.968
588.37	4.987
588.70	5.048
589.03	5.051
589.36	5.045
589.69	5.089
590.03	5.113
590.36	5.134
590.69	5.178
591.02	5.207
591.35	5.202
591.69	5.175
592.02	5.202
592.35	5.200
592.68	5.264
593.01	5.311
593.35	5.323
593.68	5.374
594.01	5.404
594.34	5.385
594.67	5.418
595.00	5.456
595.34	5.486
595.67	5.477
596.00	5.527
596.33	5.533
596.66	5.540
596.99	5.519
597.32	5.505
597.65	5.537
597.99	5.601
598.32	5.590
598.65	5.587
598.98	5.619
599.31	5.672
599.64	5.689
599.97	5.710
600.30	5.730
600.63	5.771
600.96	5.787
601.30	5.823
601.63	5.848
601.96	5.870
602.29	5.883
602.62	5.881
602.95	5.903
603.28	5.864
603.61	5.883
603.94	5.916
604.27	5.944
604.60	5.972
604.93	6.006
605.26	6.010
605.59	6.057
605.92	6.081
606.25	6.105
606.58	6.111
606.91	6.158
607.24	6.165
607.57	6.158
607.90	6.186
608.23	6.184
608.56	6.175
608.89	6.185
609.22	6.184
609.55	6.179
609.88	6.210
610.21	6.230
610.54	6.257
610.87	6.268
611.20	6.304
611.53	6.266
611.86	6.275
612.19	6.255
612.52	6.254
612.85	6.193
613.18	6.182
613.51	6.138
613.84	6.123
614.17	6.116
614.49	6.115
614.82	6.128
615.15	6.170
615.48	6.209
615.81	6.196
616.14	6.201
616.47	6.237
616.80	6.262
617.13	6.300
617.46	6.287
617.78	6.306
618.11	6.299
618.44	6.283
618.77	6.293
619.10	6.305
619.43	6.311
619.76	6.301
620.09	6.311
620.41	6.311
620.74	6.306
621.07	6.321
621.40	6.351
621.73	6.385
622.06	6.363
622.38	6.355
622.71	6.303
623.04	6.329
623.37	6.322
623.70	6.334
624.02	6.348
624.35	6.378
624.68	6.387
625.01	6.359
625.34	6.361
625.66	6.387
625.99	6.390
626.32	6.410
626.65	6.419
626.98	6.458
627.30	6.457
627.63	6.483
627.96	6.439
628.29	6.465
628.61	6.456
628.94	6.375
629.27	6.378
629.60	6.358
629.92	6.333
630.25	6.332
630.58	6.278
630.91	6.322
631.23	6.301
631.56	6.333
631.89	6.328
632.21	6.377
632.54	6.426
632.87	6.420
633.19	6.430
633.52	6.442
633.85	6.452
634.18	6.482
634.50	6.416
634.83	6.415
635.16	6.399
635.48	6.371
635.81	6.322
636.14	6.293
636.46	6.214
636.79	6.198
637.11	6.238
637.44	6.205
637.77	6.184
638.09	6.172
638.42	6.151
638.75	6.144
639.07	6.152
639.40	6.147
639.73	6.166
640.05	6.190
640.38	6.177
640.70	6.145
641.03	6.163
641.36	6.170
641.68	6.241
642.01	6.260
642.33	6.281
642.66	6.242
642.98	6.250
643.31	6.260
643.64	6.297
643.96	6.273
644.29	6.312
644.61	6.294
644.94	6.277
645.26	6.255
645.59	6.270
645.91	6.187
646.24	6.214
646.56	6.221
646.89	6.193
647.22	6.227
647.54	6.274
647.87	6.265
648.19	6.232
648.52	6.219
648.84	6.193
649.17	6.195
649.49	6.242
649.82	6.250
650.14	6.320
650.47	6.332
650.79	6.332
651.11	6.332
651.44	6.316
651.76	6.371
652.09	6.430
652.41	6.475
652.74	6.440
653.06	6.470
653.39	6.529
653.71	6.507
654.04	6.510
654.36	6.505
654.68	6.472
655.01	6.433
655.33	6.396
655.66	6.344
655.98	6.307
656.30	6.301
656.63	6.284
656.95	6.187
657.28	6.122
657.60	6.104
