OOIBase32 Version 2.0.0.6 Data File
++++++++++++++++++++++++++++++++++++
Date: 01-22-2012, 21:27:23
User: Valued Ocean Optics Customer
Spectrometer Serial Number: USB2E2917
Spectrometer Channel: Master
Integration Time (msec): 4
Spectra Averaged: 10
Boxcar Smoothing: 5
Correct for Electrical Dark: Enabled
Time Normalized: Disabled
Dual-beam Reference: Disabled
Reference Channel: Master
Temperature: Not acquired
Spectrometer Type: S2000
ADC Type: USB2000
Number of Pixels in File: 2048
Graph Title: 
>>>>>Begin Spectral Data<<<<<
180.30	0.000
180.67	0.000
181.03	-122.614
181.40	162.700
181.77	-91.283
182.14	108.771
182.51	1254.277
182.88	-31.132
183.25	-11.344
183.62	333.061
183.99	9.320
184.36	135.689
184.73	43.160
185.10	2048.625
185.46	103.676
185.83	110.707
186.20	41.879
186.57	476.920
186.94	42.961
187.31	138.764
187.68	-835.795
188.05	271.671
188.42	149.483
188.78	136.370
189.15	78.981
189.52	90.962
189.89	90.041
190.26	73.691
190.63	72.233
191.00	44.504
191.37	10.753
191.73	5.913
192.10	7.283
192.47	-28.470
192.84	-253.770
193.21	-538.456
193.58	-559.747
193.94	-535.258
194.31	-241.057
194.68	-108.834
195.05	-92.510
195.42	-108.290
195.79	-106.969
196.15	-71.433
196.52	-42.911
196.89	-37.821
197.26	-52.868
197.63	-65.869
198.00	-87.874
198.36	-191.649
198.73	-299.181
199.10	-201.904
199.47	-57.885
199.84	-24.622
200.20	-87.000
200.57	-61.291
200.94	-11.157
201.31	22.145
201.68	18.034
202.04	14.179
202.41	16.736
202.78	16.497
203.15	20.653
203.51	18.888
203.88	15.023
204.25	13.201
204.62	1.825
204.98	-1.496
205.35	-27.374
205.72	-43.169
206.09	-123.675
206.46	-82.251
206.82	-122.117
207.19	-115.811
207.56	-137.801
207.92	-135.893
208.29	-79.008
208.66	-61.479
209.03	-93.381
209.39	-48.797
209.76	-29.474
210.13	15.319
210.50	12.287
210.86	6.905
211.23	-6.553
211.60	-33.920
211.96	-46.571
212.33	-106.877
212.70	3854.588
213.07	421.808
213.43	455.579
213.80	1256.475
214.17	301.951
214.53	1475.948
214.90	-187.840
215.27	-89.270
215.63	-123.850
216.00	-82.699
216.37	-45.709
216.74	-37.206
217.10	-16.144
217.47	-4.569
217.84	-23.782
218.20	-12.332
218.57	-1.355
218.94	-1.576
219.30	-5.201
219.67	6.117
220.04	7.300
220.40	10.888
220.77	4.195
221.13	14.586
221.50	11.717
221.87	20.289
222.23	22.323
222.60	14.381
222.97	9.677
223.33	8.457
223.70	-1.094
224.07	0.800
224.43	-3.071
224.80	6.612
225.16	0.855
225.53	0.106
225.90	-1.920
226.26	-1.209
226.63	1.499
226.99	1.917
227.36	1.262
227.73	3.305
228.09	2.550
228.46	5.202
228.82	2.581
229.19	3.810
229.56	2.622
229.92	4.564
230.29	3.345
230.65	2.100
231.02	0.453
231.38	1.523
231.75	-0.025
232.12	1.188
232.48	-1.705
232.85	-0.036
233.21	-1.292
233.58	1.491
233.94	0.688
234.31	2.488
234.68	1.772
235.04	5.651
235.41	5.039
235.77	4.431
236.14	2.198
236.50	4.508
236.87	4.977
237.23	5.538
237.60	3.473
237.96	3.149
238.33	1.784
238.69	2.956
239.06	1.614
239.42	1.963
239.79	2.499
240.15	3.835
240.52	4.106
240.88	3.408
241.25	3.187
241.61	3.629
241.98	3.853
242.34	3.910
242.71	3.288
243.07	3.519
243.44	3.775
243.80	3.567
244.17	2.851
244.53	2.118
244.90	2.202
245.26	2.374
245.63	2.130
245.99	1.932
246.36	1.868
246.72	1.814
247.09	1.799
247.45	1.796
247.81	1.883
248.18	2.315
248.54	2.458
248.91	2.476
249.27	2.144
249.64	2.452
250.00	2.705
250.36	3.126
250.73	3.071
251.09	2.495
251.46	2.303
251.82	2.899
252.19	2.889
252.55	3.405
252.91	3.468
253.28	3.514
253.64	3.204
254.01	2.984
254.37	2.922
254.73	3.004
255.10	2.960
255.46	3.146
255.83	3.027
256.19	2.939
256.55	2.882
256.92	2.664
257.28	2.696
257.65	3.022
258.01	2.942
258.37	2.775
258.74	2.700
259.10	2.985
259.46	3.019
259.83	3.075
260.19	3.154
260.55	3.059
260.92	3.267
261.28	3.340
261.64	2.924
262.01	2.941
262.37	2.951
262.73	2.998
263.10	2.512
263.46	2.439
263.82	1.847
264.19	1.556
264.55	1.702
264.91	1.916
265.28	2.083
265.64	2.368
266.00	2.514
266.37	2.825
266.73	2.847
267.09	2.873
267.46	2.481
267.82	2.815
268.18	2.808
268.54	2.861
268.91	2.888
269.27	2.568
269.63	2.434
270.00	2.264
270.36	2.190
270.72	2.384
271.08	2.532
271.45	2.841
271.81	2.892
272.17	3.222
272.53	3.123
272.90	3.053
273.26	3.105
273.62	3.494
273.98	3.815
274.35	3.768
274.71	3.541
275.07	3.619
275.43	3.536
275.80	3.618
276.16	3.432
276.52	3.373
276.88	3.364
277.25	3.170
277.61	2.989
277.97	2.968
278.33	3.097
278.69	3.442
279.06	3.089
279.42	2.973
279.78	2.639
280.14	2.428
280.50	2.641
280.87	2.803
281.23	3.037
281.59	2.997
281.95	2.943
282.31	2.841
282.68	2.693
283.04	2.922
283.40	2.711
283.76	2.848
284.12	2.820
284.48	2.664
284.85	2.427
285.21	2.441
285.57	2.575
285.93	2.632
286.29	2.447
286.65	2.346
287.02	2.502
287.38	2.757
287.74	2.826
288.10	2.925
288.46	2.759
288.82	2.861
289.18	2.618
289.54	2.392
289.91	2.127
290.27	2.530
290.63	2.731
290.99	2.528
291.35	2.575
291.71	2.242
292.07	2.154
292.43	2.309
292.79	2.242
293.16	2.385
293.52	2.445
293.88	2.593
294.24	2.375
294.60	2.328
294.96	2.310
295.32	2.408
295.68	2.439
296.04	2.534
296.40	2.487
296.76	2.424
297.12	2.571
297.49	2.698
297.85	2.818
298.21	2.784
298.57	2.752
298.93	2.860
299.29	2.689
299.65	2.980
300.01	2.914
300.37	3.105
300.73	3.233
301.09	3.148
301.45	2.837
301.81	2.634
302.17	2.694
302.53	2.654
302.89	2.587
303.25	2.595
303.61	2.520
303.97	2.804
304.33	2.791
304.69	2.892
305.05	2.988
305.41	3.187
305.77	3.335
306.13	3.359
306.49	3.607
306.85	3.708
307.21	3.716
307.57	3.679
307.93	3.572
308.29	3.584
308.65	3.411
309.01	3.353
309.37	3.359
309.73	3.417
310.09	3.395
310.45	3.201
310.81	3.199
311.17	3.254
311.53	3.290
311.89	3.358
312.25	3.394
312.61	3.503
312.96	3.551
313.32	3.632
313.68	3.491
314.04	3.564
314.40	3.537
314.76	3.457
315.12	3.434
315.48	3.544
315.84	3.296
316.20	3.223
316.56	3.279
316.92	3.222
317.27	3.302
317.63	3.325
317.99	3.143
318.35	3.263
318.71	3.389
319.07	3.487
319.43	3.128
319.79	3.347
320.15	3.405
320.50	3.355
320.86	3.410
321.22	3.355
321.58	3.246
321.94	3.374
322.30	3.568
322.66	3.515
323.01	3.415
323.37	3.654
323.73	3.474
324.09	3.602
324.45	3.592
324.81	3.637
325.17	3.545
325.52	3.655
325.88	3.674
326.24	3.412
326.60	3.304
326.96	3.417
327.31	3.228
327.67	3.309
328.03	3.128
328.39	3.073
328.75	3.028
329.11	3.104
329.46	3.040
329.82	3.000
330.18	3.095
330.54	3.148
330.90	2.994
331.25	3.188
331.61	3.149
331.97	3.176
332.33	3.158
332.68	3.240
333.04	3.253
333.40	3.303
333.76	3.343
334.11	3.321
334.47	3.454
334.83	3.524
335.19	3.405
335.54	3.442
335.90	3.354
336.26	3.450
336.62	3.340
336.97	3.246
337.33	3.244
337.69	3.223
338.05	3.373
338.40	3.339
338.76	3.352
339.12	3.373
339.48	3.279
339.83	3.322
340.19	3.349
340.55	3.325
340.90	3.284
341.26	3.320
341.62	3.294
341.97	3.236
342.33	3.177
342.69	3.188
343.04	3.216
343.40	3.369
343.76	3.409
344.12	3.371
344.47	3.381
344.83	3.451
345.19	3.433
345.54	3.462
345.90	3.291
346.26	3.316
346.61	3.199
346.97	3.194
347.32	3.128
347.68	3.147
348.04	3.134
348.39	3.145
348.75	3.162
349.11	3.130
349.46	3.171
349.82	3.277
350.18	3.306
350.53	3.405
350.89	3.433
351.24	3.380
351.60	3.340
351.96	3.329
352.31	3.317
352.67	3.237
353.02	3.198
353.38	3.132
353.74	3.104
354.09	3.100
354.45	3.031
354.80	2.952
355.16	3.036
355.52	2.998
355.87	2.932
356.23	2.971
356.58	3.015
356.94	3.051
357.29	3.065
357.65	3.098
358.00	3.076
358.36	3.128
358.72	3.114
359.07	3.044
359.43	3.052
359.78	3.150
360.14	3.164
360.49	3.180
360.85	3.171
361.20	3.163
361.56	3.128
361.91	3.129
362.27	3.114
362.62	3.146
362.98	3.251
363.33	3.325
363.69	3.321
364.04	3.311
364.40	3.318
364.75	3.274
365.11	3.323
365.46	3.327
365.82	3.237
366.17	3.209
366.53	3.207
366.88	3.199
367.24	3.116
367.59	3.079
367.95	3.066
368.30	3.039
368.66	3.086
369.01	3.061
369.37	3.066
369.72	3.134
370.08	3.206
370.43	3.189
370.78	3.173
371.14	3.163
371.49	3.134
371.85	3.112
372.20	3.153
372.56	3.203
372.91	3.193
373.26	3.216
373.62	3.216
373.97	3.225
374.33	3.274
374.68	3.246
375.03	3.267
375.39	3.248
375.74	3.220
376.10	3.226
376.45	3.218
376.80	3.213
377.16	3.153
377.51	3.179
377.87	3.168
378.22	3.175
378.57	3.169
378.93	3.237
379.28	3.254
379.63	3.302
379.99	3.256
380.34	3.232
380.70	3.258
381.05	3.286
381.40	3.252
381.76	3.239
382.11	3.235
382.46	3.227
382.82	3.132
383.17	3.130
383.52	3.137
383.88	3.164
384.23	3.197
384.58	3.182
384.94	3.186
385.29	3.224
385.64	3.205
385.99	3.205
386.35	3.233
386.70	3.265
387.05	3.311
387.41	3.306
387.76	3.285
388.11	3.240
388.47	3.208
388.82	3.255
389.17	3.237
389.52	3.229
389.88	3.204
390.23	3.194
390.58	3.182
390.93	3.174
391.29	3.188
391.64	3.230
391.99	3.268
392.34	3.295
392.70	3.277
393.05	3.269
393.40	3.273
393.75	3.265
394.11	3.273
394.46	3.304
394.81	3.294
395.16	3.270
395.52	3.251
395.87	3.207
396.22	3.207
396.57	3.211
396.92	3.205
397.28	3.189
397.63	3.190
397.98	3.204
398.33	3.202
398.68	3.226
399.04	3.222
399.39	3.218
399.74	3.257
400.09	3.261
400.44	3.228
400.80	3.239
401.15	3.259
401.50	3.288
401.85	3.255
402.20	3.241
402.55	3.251
402.90	3.272
403.26	3.257
403.61	3.244
403.96	3.252
404.31	3.275
404.66	3.274
405.01	3.271
405.36	3.257
405.72	3.288
406.07	3.287
406.42	3.303
406.77	3.286
407.12	3.313
407.47	3.326
407.82	3.311
408.17	3.284
408.53	3.320
408.88	3.318
409.23	3.298
409.58	3.310
409.93	3.326
410.28	3.299
410.63	3.311
410.98	3.282
411.33	3.266
411.68	3.303
412.03	3.349
412.38	3.314
412.73	3.327
413.09	3.334
413.44	3.295
413.79	3.299
414.14	3.298
414.49	3.308
414.84	3.339
415.19	3.356
415.54	3.338
415.89	3.302
416.24	3.307
416.59	3.300
416.94	3.314
417.29	3.292
417.64	3.297
417.99	3.294
418.34	3.283
418.69	3.259
419.04	3.260
419.39	3.271
419.74	3.290
420.09	3.285
420.44	3.290
420.79	3.293
421.14	3.319
421.49	3.330
421.84	3.332
422.19	3.335
422.54	3.347
422.89	3.336
423.24	3.335
423.59	3.325
423.94	3.336
424.29	3.342
424.64	3.368
424.99	3.403
425.34	3.418
425.68	3.440
426.03	3.471
426.38	3.492
426.73	3.537
427.08	3.547
427.43	3.576
427.78	3.580
428.13	3.590
428.48	3.600
428.83	3.598
429.18	3.578
429.53	3.598
429.87	3.590
430.22	3.565
430.57	3.566
430.92	3.562
431.27	3.566
431.62	3.588
431.97	3.596
432.32	3.584
432.67	3.560
433.01	3.583
433.36	3.581
433.71	3.590
434.06	3.641
434.41	3.634
434.76	3.660
435.11	3.676
435.45	3.672
435.80	3.680
436.15	3.691
436.50	3.707
436.85	3.709
437.20	3.703
437.54	3.701
437.89	3.711
438.24	3.718
438.59	3.735
438.94	3.719
439.29	3.732
439.63	3.739
439.98	3.735
440.33	3.738
440.68	3.744
441.03	3.755
441.37	3.774
441.72	3.759
442.07	3.775
442.42	3.773
442.76	3.805
443.11	3.804
443.46	3.813
443.81	3.829
444.16	3.846
444.50	3.848
444.85	3.864
445.20	3.884
445.55	3.905
445.89	3.902
446.24	3.901
446.59	3.910
446.94	3.944
447.28	3.966
447.63	3.973
447.98	3.972
448.32	3.977
448.67	3.976
449.02	3.954
449.37	3.960
449.71	3.979
450.06	4.015
450.41	4.009
450.75	3.997
451.10	3.999
451.45	4.024
451.79	4.056
452.14	4.066
452.49	4.069
452.84	4.081
453.18	4.110
453.53	4.126
453.88	4.111
454.22	4.132
454.57	4.145
454.92	4.151
455.26	4.131
455.61	4.140
455.95	4.148
456.30	4.167
456.65	4.189
456.99	4.185
457.34	4.193
457.69	4.208
458.03	4.220
458.38	4.231
458.73	4.256
459.07	4.287
459.42	4.290
459.76	4.304
460.11	4.319
460.46	4.323
460.80	4.330
461.15	4.334
461.49	4.338
461.84	4.346
462.19	4.364
462.53	4.351
462.88	4.352
463.22	4.369
463.57	4.400
463.91	4.419
464.26	4.459
464.61	4.478
464.95	4.514
465.30	4.540
465.64	4.563
465.99	4.573
466.33	4.603
466.68	4.618
467.02	4.633
467.37	4.641
467.71	4.648
468.06	4.638
468.41	4.654
468.75	4.657
469.10	4.679
469.44	4.698
469.79	4.697
470.13	4.685
470.48	4.713
470.82	4.730
471.17	4.729
471.51	4.724
471.86	4.720
472.20	4.713
472.55	4.706
472.89	4.688
473.23	4.664
473.58	4.669
473.92	4.669
474.27	4.645
474.61	4.636
474.96	4.633
475.30	4.636
475.65	4.664
475.99	4.678
476.34	4.678
476.68	4.686
477.02	4.707
477.37	4.732
477.71	4.746
478.06	4.766
478.40	4.774
478.75	4.826
479.09	4.864
479.43	4.900
479.78	4.951
480.12	5.003
480.47	5.055
480.81	5.101
481.15	5.149
481.50	5.214
481.84	5.287
482.19	5.368
482.53	5.413
482.87	5.430
483.22	5.406
483.56	5.341
483.90	5.272
484.25	5.218
484.59	5.189
484.94	5.147
485.28	5.098
485.62	5.040
485.97	4.968
486.31	4.907
486.65	4.892
487.00	4.911
487.34	4.971
487.68	5.042
488.03	5.101
488.37	5.104
488.71	5.116
489.06	5.115
489.40	5.116
489.74	5.113
490.09	5.130
490.43	5.132
490.77	5.135
491.11	5.144
491.46	5.148
491.80	5.134
492.14	5.141
492.49	5.141
492.83	5.158
493.17	5.156
493.51	5.173
493.86	5.170
494.20	5.171
494.54	5.183
494.88	5.193
495.23	5.205
495.57	5.210
495.91	5.232
496.25	5.264
496.60	5.270
496.94	5.282
497.28	5.292
497.62	5.297
497.97	5.314
498.31	5.332
498.65	5.346
498.99	5.364
499.33	5.390
499.68	5.392
500.02	5.395
500.36	5.415
500.70	5.440
501.04	5.449
501.39	5.483
501.73	5.494
502.07	5.507
502.41	5.535
502.75	5.556
503.09	5.590
503.44	5.620
503.78	5.636
504.12	5.655
504.46	5.666
504.80	5.698
505.14	5.705
505.49	5.745
505.83	5.774
506.17	5.771
506.51	5.793
506.85	5.799
507.19	5.822
507.53	5.853
507.87	5.879
508.22	5.918
508.56	5.932
508.90	5.952
509.24	5.958
509.58	5.969
509.92	5.999
510.26	5.990
510.60	6.012
510.94	6.031
511.28	6.040
511.63	6.067
511.97	6.075
512.31	6.095
512.65	6.118
512.99	6.161
513.33	6.176
513.67	6.195
514.01	6.225
514.35	6.268
514.69	6.293
515.03	6.332
515.37	6.340
515.71	6.365
516.05	6.388
516.39	6.399
516.73	6.412
517.07	6.447
517.41	6.477
517.75	6.522
518.09	6.526
518.43	6.549
518.77	6.562
519.11	6.575
519.45	6.587
519.79	6.613
520.13	6.650
520.47	6.679
520.81	6.691
521.15	6.711
521.49	6.727
521.83	6.746
522.17	6.769
522.51	6.793
522.85	6.838
523.19	6.879
523.53	6.944
523.87	7.009
524.21	7.058
524.55	7.138
524.89	7.200
525.23	7.254
525.57	7.311
525.91	7.361
526.25	7.400
526.58	7.443
526.92	7.500
527.26	7.532
527.60	7.553
527.94	7.582
528.28	7.592
528.62	7.599
528.96	7.613
529.30	7.624
529.64	7.638
529.97	7.662
530.31	7.675
530.65	7.679
530.99	7.683
531.33	7.704
531.67	7.730
532.01	7.763
532.35	7.803
532.68	7.843
533.02	7.872
533.36	7.900
533.70	7.925
534.04	7.969
534.38	7.995
534.71	8.044
535.05	8.068
535.39	8.091
535.73	8.116
536.07	8.150
536.41	8.185
536.74	8.237
537.08	8.276
537.42	8.329
537.76	8.365
538.10	8.412
538.43	8.447
538.77	8.498
539.11	8.543
539.45	8.590
539.79	8.633
540.12	8.658
540.46	8.682
540.80	8.695
541.14	8.715
541.47	8.742
541.81	8.759
542.15	8.786
542.49	8.820
542.82	8.855
543.16	8.886
543.50	8.910
543.84	8.936
544.17	8.973
544.51	9.041
544.85	9.085
545.18	9.099
545.52	9.142
545.86	9.179
546.20	9.215
546.53	9.261
546.87	9.295
547.21	9.340
547.54	9.413
547.88	9.468
548.22	9.506
548.55	9.541
548.89	9.607
549.23	9.691
549.56	9.760
549.90	9.793
550.24	9.812
550.57	9.845
550.91	9.886
551.25	9.913
551.58	9.942
551.92	9.975
552.26	10.050
552.59	10.076
552.93	10.109
553.27	10.101
553.60	10.143
553.94	10.196
554.27	10.236
554.61	10.279
554.95	10.309
555.28	10.338
555.62	10.377
555.95	10.379
556.29	10.447
556.63	10.452
556.96	10.504
557.30	10.550
557.63	10.568
557.97	10.611
558.31	10.641
558.64	10.671
558.98	10.744
559.31	10.793
559.65	10.819
559.98	10.837
560.32	10.873
560.65	10.915
560.99	10.947
561.33	10.970
561.66	10.979
562.00	10.982
562.33	11.003
562.67	11.009
563.00	11.041
563.34	11.090
563.67	11.143
564.01	11.187
564.34	11.222
564.68	11.246
565.01	11.277
565.35	11.334
565.68	11.390
566.02	11.435
566.35	11.471
566.69	11.473
567.02	11.493
567.36	11.516
567.69	11.516
568.03	11.512
568.36	11.536
568.69	11.595
569.03	11.593
569.36	11.617
569.70	11.645
570.03	11.676
570.37	11.699
570.70	11.725
571.04	11.748
571.37	11.756
571.70	11.801
572.04	11.811
572.37	11.814
572.71	11.854
573.04	11.868
573.37	11.898
573.71	11.923
574.04	11.990
574.38	12.017
574.71	12.051
575.04	12.118
575.38	12.184
575.71	12.234
576.05	12.281
576.38	12.335
576.71	12.379
577.05	12.430
577.38	12.485
577.71	12.510
578.05	12.542
578.38	12.571
578.71	12.587
579.05	12.566
579.38	12.600
579.71	12.636
580.05	12.641
580.38	12.686
580.71	12.680
581.05	12.669
581.38	12.662
581.71	12.681
582.05	12.675
582.38	12.696
582.71	12.750
583.04	12.761
583.38	12.756
583.71	12.766
584.04	12.760
584.38	12.798
584.71	12.835
585.04	12.853
585.37	12.863
585.71	12.907
586.04	12.943
586.37	12.943
586.70	12.985
587.04	13.013
587.37	13.035
587.70	13.048
588.03	13.055
588.37	13.065
588.70	13.108
589.03	13.115
589.36	13.116
589.69	13.121
590.03	13.128
590.36	13.151
590.69	13.136
591.02	13.152
591.35	13.154
591.69	13.130
592.02	13.123
592.35	13.121
592.68	13.128
593.01	13.107
593.35	13.091
593.68	13.090
594.01	13.055
594.34	13.059
594.67	13.033
595.00	13.039
595.34	13.082
595.67	13.082
596.00	13.059
596.33	13.085
596.66	13.127
596.99	13.163
597.32	13.197
597.65	13.208
597.99	13.218
598.32	13.242
598.65	13.238
598.98	13.176
599.31	13.168
599.64	13.182
599.97	13.186
600.30	13.176
600.63	13.155
600.96	13.133
601.30	13.128
601.63	13.121
601.96	13.110
602.29	13.111
602.62	13.151
602.95	13.178
603.28	13.196
603.61	13.179
603.94	13.175
604.27	13.172
604.60	13.190
604.93	13.221
605.26	13.228
605.59	13.271
605.92	13.323
606.25	13.355
606.58	13.358
606.91	13.334
607.24	13.343
607.57	13.365
607.90	13.392
608.23	13.375
608.56	13.378
608.89	13.412
609.22	13.393
609.55	13.393
609.88	13.392
610.21	13.410
610.54	13.425
610.87	13.450
611.20	13.437
611.53	13.462
611.86	13.491
612.19	13.509
612.52	13.489
612.85	13.539
613.18	13.504
613.51	13.473
613.84	13.430
614.17	13.446
614.49	13.434
614.82	13.481
615.15	13.467
615.48	13.478
615.81	13.466
616.14	13.471
616.47	13.438
616.80	13.490
617.13	13.538
617.46	13.589
617.78	13.535
618.11	13.557
618.44	13.552
618.77	13.569
619.10	13.558
619.43	13.577
619.76	13.594
620.09	13.560
620.41	13.535
620.74	13.513
621.07	13.501
621.40	13.628
621.73	13.659
622.06	13.654
622.38	13.650
622.71	13.664
623.04	13.628
623.37	13.620
623.70	13.679
624.02	13.654
624.35	13.648
624.68	13.676
625.01	13.638
625.34	13.617
625.66	13.609
625.99	13.609
626.32	13.635
626.65	13.710
626.98	13.741
627.30	13.770
627.63	13.805
627.96	13.830
628.29	13.834
628.61	13.841
628.94	13.841
629.27	13.854
629.60	13.839
629.92	13.851
630.25	13.807
630.58	13.797
630.91	13.759
631.23	13.757
631.56	13.740
631.89	13.742
632.21	13.778
632.54	13.791
632.87	13.810
633.19	13.825
633.52	13.778
633.85	13.772
634.18	13.766
634.50	13.780
634.83	13.793
635.16	13.805
635.48	13.780
635.81	13.754
636.14	13.769
636.46	13.752
636.79	13.758
637.11	13.770
637.44	13.761
637.77	13.792
638.09	13.803
638.42	13.802
638.75	13.799
639.07	13.827
639.40	13.796
639.73	13.789
640.05	13.750
640.38	13.783
640.70	13.785
641.03	13.805
641.36	13.778
641.68	13.764
642.01	13.767
642.33	13.791
642.66	13.785
642.98	13.815
643.31	13.794
643.64	13.912
643.96	13.922
644.29	13.977
644.61	13.990
644.94	14.019
645.26	14.118
645.59	14.178
645.91	14.219
646.24	14.208
646.56	14.257
646.89	14.304
647.22	14.280
647.54	14.258
647.87	14.221
648.19	14.236
648.52	14.222
648.84	14.148
649.17	14.129
649.49	14.094
649.82	14.105
650.14	14.099
650.47	14.094
650.79	14.125
651.11	14.104
651.44	14.117
