OOIBase32 Version 2.0.0.6 Data File
++++++++++++++++++++++++++++++++++++
Date: 01-22-2012, 21:22:31
User: Valued Ocean Optics Customer
Spectrometer Serial Number: USB2E2917
Spectrometer Channel: Master
Integration Time (msec): 4
Spectra Averaged: 10
Boxcar Smoothing: 5
Correct for Electrical Dark: Enabled
Time Normalized: Disabled
Dual-beam Reference: Disabled
Reference Channel: Master
Temperature: Not acquired
Spectrometer Type: S2000
ADC Type: USB2000
Number of Pixels in File: 2048
Graph Title: 
>>>>>Begin Spectral Data<<<<<
180.30	0.000
180.67	0.000
181.03	-234.785
181.40	108.021
181.77	24.038
182.14	-161.608
182.51	-98.695
182.88	127.554
183.25	104.092
183.62	278.793
183.99	118.818
184.36	60.579
184.73	-127.551
185.10	2401.598
185.46	-206.803
185.83	77.914
186.20	-116.387
186.57	498.294
186.94	120.153
187.31	127.554
187.68	-4237.506
188.05	-282.294
188.42	12.457
188.78	164.387
189.15	120.772
189.52	91.614
189.89	44.219
190.26	39.740
190.63	33.944
191.00	32.089
191.37	-8.393
191.73	-39.880
192.10	-56.272
192.47	-80.842
192.84	-238.739
193.21	-434.032
193.58	-451.226
193.94	-319.317
194.31	-150.227
194.68	-72.556
195.05	-62.944
195.42	-55.490
195.79	-55.282
196.15	-23.957
196.52	6.601
196.89	-5.909
197.26	-48.008
197.63	-52.724
198.00	-72.643
198.36	-176.246
198.73	-299.310
199.10	-161.591
199.47	-50.547
199.84	-20.123
200.20	-80.958
200.57	-58.188
200.94	-7.213
201.31	39.320
201.68	45.328
202.04	35.141
202.41	23.707
202.78	22.984
203.15	26.110
203.51	24.354
203.88	19.150
204.25	13.502
204.62	1.146
204.98	-13.321
205.35	-41.826
205.72	-76.819
206.09	-141.323
206.46	-47.507
206.82	-76.104
207.19	-121.743
207.56	-160.391
207.92	-189.407
208.29	-104.131
208.66	-92.768
209.03	-129.753
209.39	-85.716
209.76	-56.091
210.13	-14.808
210.50	-36.869
210.86	-59.719
211.23	-83.750
211.60	-77.259
211.96	-59.348
212.33	-153.008
212.70	5606.899
213.07	410.769
213.43	350.472
213.80	1403.934
214.17	329.132
214.53	1844.363
214.90	-229.806
215.27	-103.317
215.63	-196.964
216.00	-146.025
216.37	-88.090
216.74	-60.632
217.10	-54.623
217.47	-56.090
217.84	-51.696
218.20	-34.994
218.57	-18.861
218.94	-33.516
219.30	-20.962
219.67	-9.618
220.04	-10.320
220.40	-3.468
220.77	-0.688
221.13	2.901
221.50	4.426
221.87	7.281
222.23	4.456
222.60	-5.060
222.97	-1.838
223.33	-20.493
223.70	-20.644
224.07	-18.651
224.43	-14.862
224.80	-8.483
225.16	-7.785
225.53	-5.676
225.90	-6.128
226.26	-4.903
226.63	-6.144
226.99	-6.939
227.36	-2.896
227.73	-0.547
228.09	-0.113
228.46	0.952
228.82	-1.498
229.19	0.179
229.56	-1.258
229.92	0.009
230.29	0.339
230.65	1.956
231.02	1.786
231.38	3.220
231.75	0.777
232.12	0.010
232.48	-3.597
232.85	-1.872
233.21	-3.194
233.58	-1.312
233.94	-1.861
234.31	-2.311
234.68	-3.022
235.04	0.492
235.41	-1.841
235.77	-1.700
236.14	-0.303
236.50	2.365
236.87	3.766
237.23	4.971
237.60	3.044
237.96	2.725
238.33	2.682
238.69	2.926
239.06	1.155
239.42	1.466
239.79	1.676
240.15	2.071
240.52	1.797
240.88	1.107
241.25	0.234
241.61	-0.030
241.98	0.211
242.34	0.359
242.71	0.523
243.07	1.022
243.44	1.205
243.80	1.631
244.17	1.252
244.53	0.984
244.90	1.126
245.26	1.535
245.63	1.644
245.99	1.481
246.36	1.193
246.72	0.869
247.09	0.394
247.45	0.805
247.81	0.532
248.18	0.520
248.54	0.475
248.91	0.363
249.27	-0.342
249.64	0.377
250.00	0.311
250.36	0.533
250.73	0.306
251.09	0.110
251.46	-0.509
251.82	0.088
252.19	0.080
252.55	0.512
252.91	0.784
253.28	1.673
253.64	1.114
254.01	1.331
254.37	2.024
254.73	2.765
255.10	3.166
255.46	3.437
255.83	3.027
256.19	3.196
256.55	3.107
256.92	3.002
257.28	2.768
257.65	2.866
258.01	2.713
258.37	2.513
258.74	2.558
259.10	2.825
259.46	2.567
259.83	2.593
260.19	2.472
260.55	2.352
260.92	2.205
261.28	2.068
261.64	1.889
262.01	1.933
262.37	1.671
262.73	1.419
263.10	0.775
263.46	1.166
263.82	1.137
264.19	0.940
264.55	1.203
264.91	1.532
265.28	2.155
265.64	2.198
266.00	2.151
266.37	2.598
266.73	2.650
267.09	2.623
267.46	2.021
267.82	2.074
268.18	2.147
268.54	1.751
268.91	1.642
269.27	1.084
269.63	0.856
270.00	0.932
270.36	0.788
270.72	0.660
271.08	0.674
271.45	0.811
271.81	0.858
272.17	1.327
272.53	1.600
272.90	1.646
273.26	1.784
273.62	1.981
273.98	2.259
274.35	2.219
274.71	2.257
275.07	2.609
275.43	2.807
275.80	2.879
276.16	2.505
276.52	2.621
276.88	2.444
277.25	2.147
277.61	2.161
277.97	1.912
278.33	2.106
278.69	2.374
279.06	2.250
279.42	2.224
279.78	2.004
280.14	2.059
280.50	1.911
280.87	1.999
281.23	2.063
281.59	2.071
281.95	2.080
282.31	2.072
282.68	2.080
283.04	1.979
283.40	1.776
283.76	1.800
284.12	1.747
284.48	1.712
284.85	1.667
285.21	1.870
285.57	1.876
285.93	1.911
286.29	1.750
286.65	1.611
287.02	1.749
287.38	1.861
287.74	1.789
288.10	1.617
288.46	1.571
288.82	1.508
289.18	1.292
289.54	1.209
289.91	1.109
290.27	1.336
290.63	1.624
290.99	1.632
291.35	1.777
291.71	1.826
292.07	1.907
292.43	2.059
292.79	2.242
293.16	2.563
293.52	2.879
293.88	3.124
294.24	3.084
294.60	3.018
294.96	3.031
295.32	3.244
295.68	3.305
296.04	3.600
296.40	3.563
296.76	3.698
297.12	3.825
297.49	3.755
297.85	4.000
298.21	4.211
298.57	4.389
298.93	4.813
299.29	4.756
299.65	5.293
300.01	5.377
300.37	5.899
300.73	6.114
301.09	6.358
301.45	6.587
301.81	6.647
302.17	6.641
302.53	6.848
302.89	6.911
303.25	7.277
303.61	7.189
303.97	7.469
304.33	7.663
304.69	8.030
305.05	8.259
305.41	8.828
305.77	9.028
306.13	9.539
306.49	9.748
306.85	10.103
307.21	10.444
307.57	10.876
307.93	11.202
308.29	11.342
308.65	11.319
309.01	11.430
309.37	11.494
309.73	11.785
310.09	11.864
310.45	12.139
310.81	12.256
311.17	12.259
311.53	12.401
311.89	12.584
312.25	12.806
312.61	13.229
312.96	13.440
313.32	13.574
313.68	13.561
314.04	13.701
314.40	13.625
314.76	13.803
315.12	14.090
315.48	14.172
315.84	13.993
316.20	14.003
316.56	13.978
316.92	13.966
317.27	13.950
317.63	14.101
317.99	14.162
318.35	14.378
318.71	14.411
319.07	14.487
319.43	14.409
319.79	14.546
320.15	14.580
320.50	14.608
320.86	14.700
321.22	14.779
321.58	14.657
321.94	14.588
322.30	14.474
322.66	14.433
323.01	14.154
323.37	14.226
323.73	14.053
324.09	14.069
324.45	13.974
324.81	13.952
325.17	13.848
325.52	13.961
325.88	14.005
326.24	14.151
326.60	14.042
326.96	14.170
327.31	13.892
327.67	14.098
328.03	14.005
328.39	13.978
328.75	13.884
329.11	13.953
329.46	13.927
329.82	13.867
330.18	13.718
330.54	13.688
330.90	13.674
331.25	13.813
331.61	13.639
331.97	13.566
332.33	13.544
332.68	13.555
333.04	13.429
333.40	13.350
333.76	13.312
334.11	13.272
334.47	13.348
334.83	13.338
335.19	13.296
335.54	13.298
335.90	13.267
336.26	13.209
336.62	13.178
336.97	13.144
337.33	13.129
337.69	13.089
338.05	13.046
338.40	12.949
338.76	12.853
339.12	12.807
339.48	12.699
339.83	12.719
340.19	12.704
340.55	12.751
340.90	12.799
341.26	12.799
341.62	12.863
341.97	12.849
342.33	12.807
342.69	12.828
343.04	12.798
343.40	12.825
343.76	12.681
344.12	12.698
344.47	12.514
344.83	12.421
345.19	12.309
345.54	12.210
345.90	12.072
346.26	12.049
346.61	11.879
346.97	11.893
347.32	11.842
347.68	11.899
348.04	11.819
348.39	11.843
348.75	11.845
349.11	11.865
349.46	11.940
349.82	12.015
350.18	12.024
350.53	12.187
350.89	12.109
351.24	12.150
351.60	12.133
351.96	12.175
352.31	12.140
352.67	12.078
353.02	12.004
353.38	11.964
353.74	11.952
354.09	11.841
354.45	11.698
354.80	11.657
355.16	11.663
355.52	11.599
355.87	11.461
356.23	11.420
356.58	11.373
356.94	11.353
357.29	11.265
357.65	11.220
358.00	11.229
358.36	11.227
358.72	11.182
359.07	11.049
359.43	11.049
359.78	11.080
360.14	11.080
360.49	11.068
360.85	11.026
361.20	10.986
361.56	10.993
361.91	10.980
362.27	10.951
362.62	10.970
362.98	11.009
363.33	10.903
363.69	10.896
364.04	10.867
364.40	10.808
364.75	10.821
365.11	10.733
365.46	10.654
365.82	10.562
366.17	10.549
366.53	10.497
366.88	10.417
367.24	10.480
367.59	10.441
367.95	10.458
368.30	10.500
368.66	10.463
369.01	10.559
369.37	10.523
369.72	10.508
370.08	10.459
370.43	10.416
370.78	10.454
371.14	10.390
371.49	10.321
371.85	10.264
372.20	10.229
372.56	10.215
372.91	10.106
373.26	10.107
373.62	10.105
373.97	10.092
374.33	10.073
374.68	10.044
375.03	9.974
375.39	9.910
375.74	9.831
376.10	9.789
376.45	9.796
376.80	9.818
377.16	9.735
377.51	9.695
377.87	9.672
378.22	9.661
378.57	9.625
378.93	9.636
379.28	9.622
379.63	9.624
379.99	9.596
380.34	9.498
380.70	9.413
381.05	9.437
381.40	9.424
381.76	9.354
382.11	9.265
382.46	9.215
382.82	9.209
383.17	9.172
383.52	9.126
383.88	9.099
384.23	9.111
384.58	9.101
384.94	9.056
385.29	9.013
385.64	8.974
385.99	8.954
386.35	8.905
386.70	8.844
387.05	8.804
387.41	8.783
387.76	8.696
388.11	8.584
388.47	8.524
388.82	8.471
389.17	8.412
389.52	8.382
389.88	8.375
390.23	8.315
390.58	8.260
390.93	8.237
391.29	8.198
391.64	8.201
391.99	8.148
392.34	8.140
392.70	8.115
393.05	8.086
393.40	8.049
393.75	7.981
394.11	7.947
394.46	7.901
394.81	7.842
395.16	7.776
395.52	7.725
395.87	7.742
396.22	7.671
396.57	7.583
396.92	7.523
397.28	7.449
397.63	7.416
397.98	7.408
398.33	7.385
398.68	7.339
399.04	7.274
399.39	7.205
399.74	7.150
400.09	7.107
400.44	7.068
400.80	7.013
401.15	6.981
401.50	6.962
401.85	6.880
402.20	6.843
402.55	6.801
402.90	6.785
403.26	6.750
403.61	6.708
403.96	6.654
404.31	6.637
404.66	6.619
405.01	6.607
405.36	6.562
405.72	6.536
406.07	6.481
406.42	6.447
406.77	6.403
407.12	6.375
407.47	6.356
407.82	6.338
408.17	6.290
408.53	6.274
408.88	6.224
409.23	6.177
409.58	6.151
409.93	6.147
410.28	6.128
410.63	6.140
410.98	6.080
411.33	6.036
411.68	6.026
412.03	6.004
412.38	5.971
412.73	5.971
413.09	5.932
413.44	5.890
413.79	5.866
414.14	5.856
414.49	5.770
414.84	5.754
415.19	5.721
415.54	5.665
415.89	5.615
416.24	5.576
416.59	5.517
416.94	5.486
417.29	5.450
417.64	5.400
417.99	5.360
418.34	5.355
418.69	5.314
419.04	5.276
419.39	5.260
419.74	5.250
420.09	5.221
420.44	5.205
420.79	5.186
421.14	5.187
421.49	5.188
421.84	5.168
422.19	5.150
422.54	5.160
422.89	5.163
423.24	5.148
423.59	5.147
423.94	5.163
424.29	5.170
424.64	5.188
424.99	5.215
425.34	5.217
425.68	5.230
426.03	5.249
426.38	5.244
426.73	5.261
427.08	5.256
427.43	5.260
427.78	5.248
428.13	5.241
428.48	5.231
428.83	5.194
429.18	5.187
429.53	5.205
429.87	5.198
430.22	5.189
430.57	5.181
430.92	5.192
431.27	5.181
431.62	5.174
431.97	5.160
432.32	5.147
432.67	5.152
433.01	5.161
433.36	5.149
433.71	5.147
434.06	5.180
434.41	5.202
434.76	5.210
435.11	5.235
435.45	5.264
435.80	5.275
436.15	5.304
436.50	5.296
436.85	5.294
437.20	5.294
437.54	5.286
437.89	5.283
438.24	5.267
438.59	5.276
438.94	5.264
439.29	5.249
439.63	5.252
439.98	5.252
440.33	5.265
440.68	5.266
441.03	5.270
441.37	5.276
441.72	5.269
442.07	5.273
442.42	5.264
442.76	5.279
443.11	5.281
443.46	5.282
443.81	5.261
444.16	5.269
444.50	5.274
444.85	5.275
445.20	5.284
445.55	5.280
445.89	5.281
446.24	5.290
446.59	5.298
446.94	5.314
447.28	5.343
447.63	5.362
447.98	5.348
448.32	5.344
448.67	5.349
449.02	5.347
449.37	5.370
449.71	5.385
450.06	5.401
450.41	5.391
450.75	5.380
451.10	5.364
451.45	5.349
451.79	5.354
452.14	5.346
452.49	5.337
452.84	5.344
453.18	5.344
453.53	5.339
453.88	5.325
454.22	5.321
454.57	5.310
454.92	5.298
455.26	5.313
455.61	5.314
455.95	5.321
456.30	5.325
456.65	5.314
456.99	5.293
457.34	5.288
457.69	5.281
458.03	5.280
458.38	5.305
458.73	5.325
459.07	5.338
459.42	5.354
459.76	5.368
460.11	5.406
460.46	5.438
460.80	5.462
461.15	5.494
461.49	5.510
461.84	5.530
462.19	5.547
462.53	5.552
462.88	5.567
463.22	5.565
463.57	5.588
463.91	5.576
464.26	5.608
464.61	5.635
464.95	5.645
465.30	5.677
465.64	5.704
465.99	5.711
466.33	5.737
466.68	5.733
467.02	5.747
467.37	5.754
467.71	5.765
468.06	5.756
468.41	5.759
468.75	5.761
469.10	5.762
469.44	5.754
469.79	5.755
470.13	5.753
470.48	5.769
470.82	5.784
471.17	5.763
471.51	5.757
471.86	5.748
472.20	5.722
472.55	5.720
472.89	5.700
473.23	5.669
473.58	5.641
473.92	5.606
474.27	5.581
474.61	5.551
474.96	5.532
475.30	5.508
475.65	5.479
475.99	5.479
476.34	5.431
476.68	5.410
477.02	5.401
477.37	5.393
477.71	5.375
478.06	5.360
478.40	5.325
478.75	5.334
479.09	5.327
479.43	5.343
479.78	5.349
480.12	5.388
480.47	5.438
480.81	5.490
481.15	5.529
481.50	5.589
481.84	5.656
482.19	5.734
482.53	5.774
482.87	5.792
483.22	5.764
483.56	5.704
483.90	5.626
484.25	5.557
484.59	5.516
484.94	5.470
485.28	5.413
485.62	5.339
485.97	5.249
486.31	5.181
486.65	5.149
487.00	5.164
487.34	5.220
487.68	5.297
488.03	5.344
488.37	5.351
488.71	5.356
489.06	5.356
489.40	5.358
489.74	5.380
490.09	5.393
490.43	5.396
490.77	5.398
491.11	5.413
491.46	5.425
491.80	5.427
492.14	5.433
492.49	5.458
492.83	5.468
493.17	5.479
493.51	5.491
493.86	5.513
494.20	5.544
494.54	5.574
494.88	5.592
495.23	5.593
495.57	5.625
495.91	5.658
496.25	5.676
496.60	5.709
496.94	5.752
497.28	5.779
497.62	5.802
497.97	5.843
498.31	5.886
498.65	5.926
498.99	5.976
499.33	6.022
499.68	6.049
500.02	6.096
500.36	6.140
500.70	6.178
501.04	6.219
501.39	6.275
501.73	6.305
502.07	6.313
502.41	6.366
502.75	6.409
503.09	6.447
503.44	6.494
503.78	6.509
504.12	6.562
504.46	6.589
504.80	6.641
505.14	6.667
505.49	6.738
505.83	6.783
506.17	6.813
506.51	6.844
506.85	6.861
507.19	6.892
507.53	6.955
507.87	6.982
508.22	7.035
508.56	7.072
508.90	7.111
509.24	7.129
509.58	7.178
509.92	7.199
510.26	7.235
510.60	7.278
510.94	7.315
511.28	7.337
511.63	7.376
511.97	7.393
512.31	7.418
512.65	7.453
512.99	7.476
513.33	7.500
513.67	7.519
514.01	7.549
514.35	7.578
514.69	7.596
515.03	7.619
515.37	7.623
515.71	7.636
516.05	7.632
516.39	7.640
516.73	7.634
517.07	7.641
517.41	7.670
517.75	7.673
518.09	7.692
518.43	7.708
518.77	7.712
519.11	7.708
519.45	7.709
519.79	7.726
520.13	7.731
520.47	7.752
520.81	7.757
521.15	7.745
521.49	7.737
521.83	7.704
522.17	7.681
522.51	7.668
522.85	7.679
523.19	7.677
523.53	7.674
523.87	7.680
524.21	7.669
524.55	7.687
524.89	7.702
525.23	7.718
525.57	7.733
525.91	7.760
526.25	7.775
526.58	7.786
526.92	7.816
527.26	7.828
527.60	7.835
527.94	7.845
528.28	7.834
528.62	7.821
528.96	7.809
529.30	7.802
529.64	7.773
529.97	7.760
530.31	7.731
530.65	7.689
530.99	7.653
531.33	7.618
531.67	7.595
532.01	7.581
532.35	7.574
532.68	7.566
533.02	7.557
533.36	7.545
533.70	7.520
534.04	7.508
534.38	7.488
534.71	7.477
535.05	7.461
535.39	7.442
535.73	7.429
536.07	7.405
536.41	7.365
536.74	7.340
537.08	7.323
537.42	7.325
537.76	7.318
538.10	7.319
538.43	7.303
538.77	7.312
539.11	7.307
539.45	7.290
539.79	7.283
540.12	7.298
540.46	7.297
540.80	7.292
541.14	7.272
541.47	7.264
541.81	7.241
542.15	7.234
542.49	7.206
542.82	7.201
543.16	7.194
543.50	7.177
543.84	7.142
544.17	7.108
544.51	7.081
544.85	7.073
545.18	7.051
545.52	7.055
545.86	7.059
546.20	7.058
546.53	7.042
546.87	7.034
547.21	7.041
547.54	7.048
547.88	7.063
548.22	7.079
548.55	7.060
548.89	7.051
549.23	7.030
549.56	7.004
549.90	6.982
550.24	6.970
550.57	6.941
550.91	6.910
551.25	6.888
551.58	6.878
551.92	6.871
552.26	6.886
552.59	6.886
552.93	6.897
553.27	6.900
553.60	6.908
553.94	6.897
554.27	6.907
554.61	6.924
554.95	6.924
555.28	6.936
555.62	6.926
555.95	6.907
556.29	6.893
556.63	6.898
556.96	6.895
557.30	6.919
557.63	6.916
557.97	6.940
558.31	6.942
558.64	6.956
558.98	6.953
559.31	6.950
559.65	6.950
559.98	6.948
560.32	6.931
560.65	6.902
560.99	6.859
561.33	6.865
561.66	6.818
562.00	6.810
562.33	6.788
562.67	6.777
563.00	6.771
563.34	6.792
563.67	6.828
564.01	6.824
564.34	6.864
564.68	6.877
565.01	6.874
565.35	6.911
565.68	6.920
566.02	6.935
566.35	6.948
566.69	6.942
567.02	6.924
567.36	6.913
567.69	6.907
568.03	6.880
568.36	6.886
568.69	6.913
569.03	6.918
569.36	6.905
569.70	6.899
570.03	6.904
570.37	6.929
570.70	6.935
571.04	6.934
571.37	6.934
571.70	6.940
572.04	6.940
572.37	6.938
572.71	6.931
573.04	6.930
573.37	6.948
573.71	6.942
574.04	6.938
574.38	6.957
574.71	6.954
575.04	6.986
575.38	7.004
575.71	7.040
576.05	7.029
576.38	7.060
576.71	7.084
577.05	7.104
577.38	7.123
577.71	7.147
578.05	7.121
578.38	7.136
578.71	7.149
579.05	7.138
579.38	7.141
579.71	7.170
580.05	7.160
580.38	7.169
580.71	7.152
581.05	7.139
581.38	7.123
581.71	7.154
582.05	7.137
582.38	7.104
582.71	7.096
583.04	7.074
583.38	7.066
583.71	7.024
584.04	7.028
584.38	7.041
584.71	7.029
585.04	7.047
585.37	7.022
585.71	7.049
586.04	7.075
586.37	7.087
586.70	7.104
587.04	7.105
587.37	7.147
587.70	7.143
588.03	7.117
588.37	7.132
588.70	7.120
589.03	7.152
589.36	7.148
589.69	7.147
590.03	7.156
590.36	7.166
590.69	7.163
591.02	7.150
591.35	7.147
591.69	7.157
592.02	7.148
592.35	7.167
592.68	7.152
593.01	7.153
593.35	7.141
593.68	7.119
594.01	7.113
594.34	7.122
594.67	7.129
595.00	7.113
595.34	7.115
595.67	7.094
596.00	7.085
596.33	7.094
596.66	7.111
596.99	7.131
597.32	7.159
597.65	7.145
597.99	7.134
598.32	7.124
598.65	7.128
598.98	7.106
599.31	7.158
599.64	7.165
599.97	7.176
600.30	7.156
600.63	7.142
600.96	7.158
601.30	7.160
601.63	7.188
601.96	7.184
602.29	7.215
602.62	7.258
602.95	7.237
603.28	7.239
603.61	7.225
603.94	7.219
604.27	7.244
604.60	7.241
604.93	7.244
605.26	7.206
605.59	7.231
605.92	7.221
606.25	7.212
606.58	7.231
606.91	7.219
607.24	7.227
607.57	7.260
607.90	7.243
608.23	7.222
608.56	7.214
608.89	7.225
609.22	7.212
609.55	7.219
609.88	7.224
610.21	7.227
610.54	7.219
610.87	7.196
611.20	7.159
611.53	7.145
611.86	7.157
612.19	7.150
612.52	7.163
612.85	7.191
613.18	7.172
613.51	7.150
613.84	7.134
614.17	7.146
614.49	7.149
614.82	7.173
615.15	7.231
615.48	7.243
615.81	7.266
616.14	7.246
616.47	7.207
616.80	7.217
617.13	7.239
617.46	7.235
617.78	7.214
618.11	7.266
618.44	7.235
618.77	7.202
619.10	7.157
619.43	7.158
619.76	7.145
620.09	7.134
620.41	7.105
620.74	7.100
621.07	7.097
621.40	7.120
621.73	7.068
622.06	7.076
622.38	7.071
622.71	7.125
623.04	7.121
623.37	7.173
623.70	7.206
624.02	7.213
624.35	7.174
624.68	7.188
625.01	7.191
625.34	7.181
625.66	7.171
625.99	7.170
626.32	7.143
626.65	7.153
626.98	7.143
627.30	7.143
627.63	7.122
627.96	7.130
628.29	7.134
628.61	7.123
628.94	7.146
629.27	7.127
629.60	7.107
629.92	7.116
630.25	7.062
630.58	6.987
630.91	6.918
631.23	6.921
631.56	6.919
631.89	6.865
632.21	6.857
632.54	6.826
632.87	6.825
633.19	6.820
633.52	6.788
633.85	6.810
634.18	6.843
634.50	6.863
634.83	6.876
635.16	6.859
635.48	6.872
635.81	6.874
636.14	6.856
636.46	6.874
636.79	6.856
637.11	6.881
637.44	6.842
637.77	6.829
638.09	6.803
638.42	6.738
638.75	6.690
639.07	6.665
639.40	6.614
639.73	6.614
640.05	6.541
640.38	6.525
640.70	6.468
641.03	6.492
641.36	6.425
641.68	6.406
642.01	6.435
642.33	6.504
642.66	6.513
642.98	6.540
643.31	6.544
643.64	6.607
643.96	6.568
644.29	6.600
644.61	6.554
644.94	6.655
645.26	6.718
645.59	6.713
645.91	6.650
646.24	6.665
646.56	6.653
646.89	6.646
647.22	6.636
647.54	6.651
647.87	6.609
648.19	6.656
648.52	6.612
648.84	6.533
649.17	6.544
649.49	6.533
649.82	6.525
650.14	6.516
650.47	6.516
650.79	6.494
651.11	6.499
651.44	6.478
651.76	6.432
652.09	6.457
652.41	6.498
652.74	6.444
653.06	6.444
