OOIBase32 Version 2.0.0.6 Data File
++++++++++++++++++++++++++++++++++++
Date: 01-19-2012, 17:37:03
User: Valued Ocean Optics Customer
Spectrometer Serial Number: USB2E2917
Spectrometer Channel: Master
Integration Time (msec): 6
Spectra Averaged: 10
Boxcar Smoothing: 5
Correct for Electrical Dark: Enabled
Time Normalized: Disabled
Dual-beam Reference: Disabled
Reference Channel: Master
Temperature: Not acquired
Spectrometer Type: S2000
ADC Type: USB2000
Number of Pixels in File: 2048
Graph Title: 
>>>>>Begin Spectral Data<<<<<
180.30	0.000
180.67	0.000
181.03	65.770
181.40	-6.766
181.77	-30.667
182.14	-198.883
182.51	21.082
182.88	118.836
183.25	-185.537
183.62	23.674
183.99	-9.222
184.36	59.821
184.73	219.284
185.10	117.453
185.46	55.139
185.83	91.792
186.20	47.531
186.57	168.293
186.94	305.929
187.31	-48.987
187.68	91.510
188.05	107.667
188.42	87.441
188.78	77.392
189.15	68.238
189.52	67.470
189.89	56.129
190.26	44.034
190.63	41.660
191.00	41.653
191.37	47.310
191.73	39.651
192.10	28.833
192.47	30.305
192.84	32.373
193.21	27.646
193.58	8.236
193.94	3.020
194.31	-1.419
194.68	-2.865
195.05	-15.845
195.42	-37.975
195.79	-51.659
196.15	-21.873
196.52	-22.638
196.89	-34.679
197.26	-39.858
197.63	-22.168
198.00	-18.059
198.36	-10.879
198.73	-17.697
199.10	-8.246
199.47	-14.262
199.84	-5.799
200.20	-3.311
200.57	-6.124
200.94	10.436
201.31	9.210
201.68	2.319
202.04	-2.340
202.41	-7.343
202.78	-2.197
203.15	-5.868
203.51	12.011
203.88	14.280
204.25	17.276
204.62	17.816
204.98	6.283
205.35	11.702
205.72	2.180
206.09	5.169
206.46	17.284
206.82	6.764
207.19	-0.364
207.56	-19.180
207.92	-14.027
208.29	-47.057
208.66	-66.181
209.03	-68.404
209.39	-91.371
209.76	-49.343
210.13	-46.507
210.50	-36.148
210.86	-18.925
211.23	-11.725
211.60	-2.613
211.96	-0.779
212.33	13.725
212.70	20.834
213.07	18.338
213.43	25.381
213.80	17.025
214.17	20.545
214.53	17.916
214.90	16.974
215.27	17.322
215.63	6.956
216.00	9.222
216.37	0.654
216.74	0.219
217.10	8.315
217.47	5.865
217.84	10.793
218.20	15.017
218.57	12.436
218.94	3.524
219.30	1.512
219.67	11.618
220.04	7.181
220.40	11.078
220.77	10.049
221.13	4.406
221.50	3.695
221.87	2.157
222.23	0.140
222.60	-1.151
222.97	2.289
223.33	6.093
223.70	1.375
224.07	-0.882
224.43	-1.861
224.80	-1.833
225.16	2.852
225.53	3.870
225.90	4.248
226.26	3.362
226.63	1.727
226.99	2.713
227.36	1.796
227.73	2.416
228.09	2.209
228.46	2.966
228.82	4.083
229.19	2.228
229.56	1.091
229.92	0.436
230.29	1.971
230.65	3.984
231.02	3.415
231.38	3.532
231.75	2.441
232.12	3.846
232.48	3.868
232.85	3.561
233.21	4.246
233.58	3.780
233.94	3.952
234.31	3.182
234.68	0.948
235.04	1.719
235.41	1.880
235.77	1.732
236.14	1.359
236.50	1.970
236.87	1.528
237.23	1.418
237.60	1.252
237.96	1.200
238.33	1.626
238.69	2.298
239.06	1.468
239.42	1.231
239.79	1.354
240.15	1.914
240.52	1.866
240.88	1.612
241.25	1.882
241.61	2.201
241.98	2.118
242.34	1.797
242.71	1.782
243.07	1.737
243.44	1.851
243.80	2.062
244.17	1.758
244.53	1.506
244.90	1.353
245.26	1.265
245.63	1.128
245.99	1.142
246.36	1.410
246.72	1.523
247.09	1.502
247.45	1.518
247.81	1.291
248.18	1.198
248.54	1.054
248.91	1.554
249.27	1.315
249.64	1.354
250.00	1.365
250.36	0.828
250.73	0.310
251.09	0.480
251.46	0.701
251.82	0.771
252.19	0.833
252.55	1.244
252.91	0.925
253.28	1.480
253.64	1.851
254.01	2.315
254.37	2.472
254.73	2.600
255.10	2.629
255.46	2.473
255.83	2.465
256.19	2.452
256.55	2.268
256.92	2.293
257.28	2.025
257.65	1.940
258.01	1.930
258.37	1.899
258.74	1.913
259.10	1.781
259.46	1.637
259.83	1.711
260.19	1.648
260.55	1.629
260.92	1.442
261.28	1.502
261.64	1.492
262.01	1.413
262.37	1.536
262.73	1.637
263.10	1.747
263.46	1.616
263.82	1.414
264.19	1.187
264.55	1.220
264.91	1.520
265.28	1.774
265.64	1.933
266.00	1.555
266.37	1.396
266.73	1.504
267.09	1.545
267.46	1.696
267.82	1.760
268.18	1.996
268.54	1.941
268.91	1.838
269.27	1.713
269.63	1.515
270.00	1.764
270.36	1.630
270.72	1.748
271.08	1.760
271.45	1.880
271.81	2.008
272.17	2.083
272.53	2.139
272.90	1.988
273.26	1.834
273.62	1.745
273.98	1.720
274.35	1.852
274.71	1.843
275.07	1.682
275.43	1.268
275.80	1.164
276.16	1.117
276.52	1.212
276.88	1.221
277.25	1.469
277.61	1.600
277.97	1.647
278.33	1.620
278.69	1.212
279.06	1.375
279.42	1.835
279.78	1.662
280.14	1.384
280.50	1.398
280.87	1.625
281.23	1.531
281.59	1.527
281.95	1.522
282.31	1.533
282.68	1.563
283.04	1.479
283.40	1.276
283.76	1.445
284.12	1.652
284.48	1.518
284.85	1.248
285.21	1.120
285.57	1.188
285.93	0.995
286.29	0.893
286.65	1.111
287.02	1.106
287.38	1.193
287.74	1.151
288.10	1.139
288.46	1.230
288.82	1.464
289.18	1.649
289.54	1.529
289.91	1.764
290.27	1.898
290.63	1.774
290.99	1.776
291.35	1.704
291.71	1.575
292.07	1.487
292.43	1.405
292.79	1.402
293.16	1.350
293.52	1.341
293.88	1.260
294.24	1.348
294.60	1.265
294.96	1.270
295.32	1.240
295.68	1.256
296.04	1.303
296.40	1.264
296.76	1.213
297.12	1.209
297.49	1.360
297.85	1.429
298.21	1.424
298.57	1.464
298.93	1.496
299.29	1.578
299.65	1.542
300.01	1.530
300.37	1.804
300.73	1.869
301.09	1.708
301.45	1.601
301.81	1.434
302.17	1.416
302.53	1.378
302.89	1.397
303.25	1.520
303.61	1.626
303.97	1.722
304.33	1.595
304.69	1.458
305.05	1.614
305.41	1.623
305.77	1.829
306.13	1.816
306.49	1.933
306.85	1.880
307.21	1.834
307.57	1.944
307.93	1.936
308.29	1.880
308.65	1.917
309.01	1.989
309.37	1.999
309.73	1.937
310.09	1.845
310.45	1.915
310.81	2.003
311.17	2.013
311.53	1.852
311.89	1.757
312.25	1.801
312.61	1.923
312.96	1.878
313.32	1.990
313.68	1.962
314.04	2.027
314.40	1.918
314.76	1.928
315.12	1.778
315.48	1.859
315.84	1.918
316.20	1.947
316.56	1.851
316.92	1.947
317.27	1.768
317.63	1.761
317.99	1.845
318.35	1.883
318.71	1.770
319.07	1.657
319.43	1.728
319.79	1.662
320.15	1.664
320.50	1.749
320.86	1.552
321.22	1.709
321.58	1.813
321.94	1.848
322.30	1.844
322.66	1.900
323.01	2.178
323.37	2.165
323.73	2.220
324.09	2.213
324.45	2.051
324.81	2.110
325.17	1.961
325.52	1.865
325.88	1.812
326.24	1.820
326.60	1.804
326.96	1.739
327.31	1.676
327.67	1.705
328.03	1.629
328.39	1.757
328.75	1.733
329.11	1.745
329.46	1.814
329.82	1.812
330.18	1.785
330.54	1.749
330.90	1.689
331.25	1.798
331.61	1.890
331.97	1.919
332.33	1.855
332.68	1.833
333.04	1.959
333.40	1.943
333.76	1.981
334.11	1.949
334.47	2.049
334.83	2.072
335.19	1.985
335.54	1.924
335.90	1.929
336.26	1.969
336.62	1.982
336.97	1.883
337.33	1.851
337.69	1.832
338.05	1.886
338.40	1.831
338.76	1.765
339.12	1.751
339.48	1.682
339.83	1.794
340.19	1.815
340.55	1.892
340.90	1.939
341.26	2.030
341.62	2.003
341.97	2.041
342.33	2.010
342.69	2.060
343.04	2.102
343.40	2.194
343.76	2.122
344.12	2.084
344.47	2.025
344.83	2.082
345.19	2.010
345.54	2.061
345.90	1.982
346.26	2.062
346.61	2.085
346.97	2.090
347.32	2.035
347.68	2.092
348.04	2.174
348.39	2.248
348.75	2.182
349.11	2.199
349.46	2.168
349.82	2.191
350.18	2.161
350.53	2.186
350.89	2.145
351.24	2.192
351.60	2.194
351.96	2.071
352.31	2.044
352.67	2.095
353.02	2.120
353.38	2.136
353.74	2.098
354.09	2.115
354.45	2.107
354.80	2.180
355.16	2.190
355.52	2.171
355.87	2.170
356.23	2.145
356.58	2.073
356.94	2.051
357.29	2.012
357.65	2.077
358.00	2.083
358.36	2.119
358.72	2.102
359.07	1.975
359.43	1.919
359.78	1.949
360.14	1.917
360.49	1.981
360.85	2.009
361.20	2.070
361.56	2.075
361.91	2.064
362.27	2.008
362.62	2.004
362.98	2.109
363.33	2.134
363.69	2.200
364.04	2.196
364.40	2.180
364.75	2.172
365.11	2.124
365.46	2.075
365.82	2.091
366.17	2.086
366.53	2.066
366.88	2.057
367.24	2.079
367.59	2.046
367.95	2.111
368.30	2.142
368.66	2.131
369.01	2.162
369.37	2.216
369.72	2.167
370.08	2.172
370.43	2.216
370.78	2.232
371.14	2.232
371.49	2.203
371.85	2.194
372.20	2.203
372.56	2.231
372.91	2.203
373.26	2.209
373.62	2.250
373.97	2.273
374.33	2.237
374.68	2.236
375.03	2.189
375.39	2.227
375.74	2.216
376.10	2.171
376.45	2.147
376.80	2.159
377.16	2.161
377.51	2.135
377.87	2.130
378.22	2.169
378.57	2.149
378.93	2.195
379.28	2.224
379.63	2.249
379.99	2.243
380.34	2.265
380.70	2.248
381.05	2.249
381.40	2.280
381.76	2.281
382.11	2.230
382.46	2.250
382.82	2.242
383.17	2.200
383.52	2.171
383.88	2.184
384.23	2.135
384.58	2.173
384.94	2.158
385.29	2.150
385.64	2.097
385.99	2.114
386.35	2.112
386.70	2.131
387.05	2.107
387.41	2.122
387.76	2.137
388.11	2.173
388.47	2.152
388.82	2.143
389.17	2.144
389.52	2.197
389.88	2.180
390.23	2.165
390.58	2.154
390.93	2.200
391.29	2.191
391.64	2.156
391.99	2.121
392.34	2.128
392.70	2.146
393.05	2.142
393.40	2.164
393.75	2.198
394.11	2.212
394.46	2.192
394.81	2.153
395.16	2.161
395.52	2.184
395.87	2.193
396.22	2.216
396.57	2.232
396.92	2.250
397.28	2.230
397.63	2.226
397.98	2.213
398.33	2.224
398.68	2.247
399.04	2.255
399.39	2.274
399.74	2.239
400.09	2.201
400.44	2.185
400.80	2.166
401.15	2.166
401.50	2.168
401.85	2.180
402.20	2.189
402.55	2.188
402.90	2.180
403.26	2.156
403.61	2.196
403.96	2.223
404.31	2.241
404.66	2.268
405.01	2.272
405.36	2.265
405.72	2.272
406.07	2.290
406.42	2.304
406.77	2.316
407.12	2.321
407.47	2.348
407.82	2.371
408.17	2.350
408.53	2.363
408.88	2.361
409.23	2.358
409.58	2.338
409.93	2.319
410.28	2.305
410.63	2.280
410.98	2.272
411.33	2.272
411.68	2.233
412.03	2.232
412.38	2.206
412.73	2.212
413.09	2.212
413.44	2.235
413.79	2.245
414.14	2.242
414.49	2.248
414.84	2.249
415.19	2.244
415.54	2.245
415.89	2.225
416.24	2.230
416.59	2.231
416.94	2.222
417.29	2.202
417.64	2.192
417.99	2.199
418.34	2.201
418.69	2.212
419.04	2.207
419.39	2.217
419.74	2.227
420.09	2.220
420.44	2.216
420.79	2.225
421.14	2.241
421.49	2.239
421.84	2.244
422.19	2.240
422.54	2.236
422.89	2.243
423.24	2.243
423.59	2.245
423.94	2.258
424.29	2.274
424.64	2.289
424.99	2.282
425.34	2.294
425.68	2.294
426.03	2.311
426.38	2.325
426.73	2.339
427.08	2.344
427.43	2.377
427.78	2.380
428.13	2.383
428.48	2.390
428.83	2.400
429.18	2.407
429.53	2.406
429.87	2.405
430.22	2.409
430.57	2.407
430.92	2.404
431.27	2.401
431.62	2.407
431.97	2.396
432.32	2.393
432.67	2.400
433.01	2.413
433.36	2.409
433.71	2.427
434.06	2.419
434.41	2.428
434.76	2.429
435.11	2.441
435.45	2.427
435.80	2.435
436.15	2.428
436.50	2.422
436.85	2.406
437.20	2.428
437.54	2.412
437.89	2.427
438.24	2.425
438.59	2.436
438.94	2.427
439.29	2.440
439.63	2.444
439.98	2.450
440.33	2.451
440.68	2.455
441.03	2.447
441.37	2.477
441.72	2.479
442.07	2.483
442.42	2.462
442.76	2.455
443.11	2.447
443.46	2.441
443.81	2.461
444.16	2.465
444.50	2.467
444.85	2.480
445.20	2.458
445.55	2.460
445.89	2.452
446.24	2.468
446.59	2.485
446.94	2.486
447.28	2.505
447.63	2.509
447.98	2.531
448.32	2.555
448.67	2.542
449.02	2.563
449.37	2.576
449.71	2.593
450.06	2.598
450.41	2.594
450.75	2.613
451.10	2.625
451.45	2.611
451.79	2.614
452.14	2.619
452.49	2.628
452.84	2.629
453.18	2.631
453.53	2.642
453.88	2.658
454.22	2.666
454.57	2.671
454.92	2.663
455.26	2.664
455.61	2.656
455.95	2.640
456.30	2.639
456.65	2.644
456.99	2.632
457.34	2.639
457.69	2.642
458.03	2.640
458.38	2.650
458.73	2.658
459.07	2.671
459.42	2.685
459.76	2.705
460.11	2.731
460.46	2.745
460.80	2.764
461.15	2.773
461.49	2.780
461.84	2.790
462.19	2.804
462.53	2.814
462.88	2.822
463.22	2.829
463.57	2.843
463.91	2.833
464.26	2.847
464.61	2.863
464.95	2.868
465.30	2.876
465.64	2.898
465.99	2.893
466.33	2.891
466.68	2.892
467.02	2.898
467.37	2.897
467.71	2.922
468.06	2.917
468.41	2.911
468.75	2.918
469.10	2.915
469.44	2.916
469.79	2.930
470.13	2.953
470.48	2.966
470.82	2.976
471.17	2.985
471.51	2.956
471.86	2.954
472.20	2.979
472.55	2.970
472.89	2.989
473.23	2.982
473.58	2.988
473.92	2.982
474.27	2.980
474.61	2.973
474.96	2.978
475.30	3.003
475.65	3.012
475.99	3.003
476.34	3.014
476.68	3.002
477.02	3.010
477.37	3.002
477.71	3.016
478.06	3.018
478.40	3.031
478.75	3.036
479.09	3.042
479.43	3.094
479.78	3.162
480.12	3.235
480.47	3.305
480.81	3.383
481.15	3.459
481.50	3.525
481.84	3.610
482.19	3.699
482.53	3.784
482.87	3.866
483.22	3.892
483.56	3.873
483.90	3.823
484.25	3.764
484.59	3.688
484.94	3.605
485.28	3.522
485.62	3.422
485.97	3.317
486.31	3.226
486.65	3.146
487.00	3.094
487.34	3.066
487.68	3.064
488.03	3.074
488.37	3.084
488.71	3.099
489.06	3.111
489.40	3.128
489.74	3.142
490.09	3.160
490.43	3.173
490.77	3.188
491.11	3.201
491.46	3.214
491.80	3.219
492.14	3.232
492.49	3.242
492.83	3.257
493.17	3.263
493.51	3.275
493.86	3.272
494.20	3.281
494.54	3.282
494.88	3.287
495.23	3.295
495.57	3.300
495.91	3.316
496.25	3.313
496.60	3.317
496.94	3.331
497.28	3.338
497.62	3.351
497.97	3.354
498.31	3.360
498.65	3.384
498.99	3.390
499.33	3.400
499.68	3.392
500.02	3.409
500.36	3.418
500.70	3.429
501.04	3.446
501.39	3.466
501.73	3.467
502.07	3.477
502.41	3.466
502.75	3.459
503.09	3.469
503.44	3.463
503.78	3.474
504.12	3.465
504.46	3.460
504.80	3.458
505.14	3.448
505.49	3.452
505.83	3.450
506.17	3.465
506.51	3.482
506.85	3.467
507.19	3.482
507.53	3.477
507.87	3.491
508.22	3.499
508.56	3.495
508.90	3.505
509.24	3.510
509.58	3.514
509.92	3.520
510.26	3.523
510.60	3.547
510.94	3.556
511.28	3.562
511.63	3.577
511.97	3.588
512.31	3.606
512.65	3.615
512.99	3.621
513.33	3.647
513.67	3.648
514.01	3.641
514.35	3.637
514.69	3.634
515.03	3.634
515.37	3.636
515.71	3.638
516.05	3.646
516.39	3.646
516.73	3.654
517.07	3.642
517.41	3.645
517.75	3.663
518.09	3.679
518.43	3.686
518.77	3.708
519.11	3.709
519.45	3.720
519.79	3.727
520.13	3.730
520.47	3.742
520.81	3.760
521.15	3.763
521.49	3.764
521.83	3.768
522.17	3.778
522.51	3.763
522.85	3.767
523.19	3.769
523.53	3.774
523.87	3.797
524.21	3.805
524.55	3.844
524.89	3.896
525.23	3.952
525.57	3.996
525.91	4.037
526.25	4.088
526.58	4.133
526.92	4.175
527.26	4.201
527.60	4.198
527.94	4.180
528.28	4.122
528.62	4.054
528.96	3.977
529.30	3.949
529.64	3.913
529.97	3.870
530.31	3.831
530.65	3.797
530.99	3.774
531.33	3.780
531.67	3.805
532.01	3.854
532.35	3.905
532.68	3.955
533.02	3.952
533.36	3.963
533.70	3.978
534.04	3.987
534.38	3.984
534.71	3.986
535.05	3.984
535.39	4.000
535.73	4.008
536.07	4.025
536.41	4.043
536.74	4.055
537.08	4.062
537.42	4.069
537.76	4.068
538.10	4.085
538.43	4.101
538.77	4.114
539.11	4.123
539.45	4.138
539.79	4.144
540.12	4.146
540.46	4.156
540.80	4.165
541.14	4.164
541.47	4.176
541.81	4.182
542.15	4.189
542.49	4.196
542.82	4.200
543.16	4.205
543.50	4.219
543.84	4.224
544.17	4.241
544.51	4.245
544.85	4.269
545.18	4.272
545.52	4.274
545.86	4.280
546.20	4.300
546.53	4.307
546.87	4.325
547.21	4.334
547.54	4.350
547.88	4.362
548.22	4.386
548.55	4.396
548.89	4.439
549.23	4.459
549.56	4.473
549.90	4.474
550.24	4.490
550.57	4.493
550.91	4.494
551.25	4.500
551.58	4.501
551.92	4.508
552.26	4.533
552.59	4.516
552.93	4.519
553.27	4.532
553.60	4.546
553.94	4.560
554.27	4.575
554.61	4.584
554.95	4.604
555.28	4.609
555.62	4.608
555.95	4.602
556.29	4.630
556.63	4.653
556.96	4.668
557.30	4.664
557.63	4.674
557.97	4.679
558.31	4.690
558.64	4.702
558.98	4.709
559.31	4.714
559.65	4.722
559.98	4.725
560.32	4.735
560.65	4.748
560.99	4.768
561.33	4.775
561.66	4.770
562.00	4.784
562.33	4.795
562.67	4.809
563.00	4.825
563.34	4.821
563.67	4.843
564.01	4.837
564.34	4.841
564.68	4.858
565.01	4.866
565.35	4.878
565.68	4.892
566.02	4.897
566.35	4.904
566.69	4.920
567.02	4.942
567.36	4.932
567.69	4.953
568.03	4.959
568.36	4.967
568.69	4.957
569.03	4.958
569.36	4.967
569.70	4.978
570.03	4.976
570.37	4.977
570.70	4.973
571.04	4.982
571.37	4.965
571.70	4.975
572.04	4.964
572.37	4.985
572.71	4.998
573.04	4.993
573.37	5.001
573.71	5.026
574.04	5.036
574.38	5.066
574.71	5.067
575.04	5.092
575.38	5.097
575.71	5.138
576.05	5.139
576.38	5.144
576.71	5.174
577.05	5.174
577.38	5.177
577.71	5.207
578.05	5.211
578.38	5.231
578.71	5.252
579.05	5.265
579.38	5.243
579.71	5.257
580.05	5.296
580.38	5.310
580.71	5.337
581.05	5.335
581.38	5.342
581.71	5.352
582.05	5.382
582.38	5.399
582.71	5.419
583.04	5.447
583.38	5.480
583.71	5.491
584.04	5.493
584.38	5.513
584.71	5.550
585.04	5.561
585.37	5.557
585.71	5.547
586.04	5.530
586.37	5.531
586.70	5.534
587.04	5.527
587.37	5.516
587.70	5.524
588.03	5.537
588.37	5.536
588.70	5.556
589.03	5.572
589.36	5.610
589.69	5.629
590.03	5.659
590.36	5.692
590.69	5.729
591.02	5.758
591.35	5.774
591.69	5.788
592.02	5.789
592.35	5.774
592.68	5.784
593.01	5.766
593.35	5.792
593.68	5.791
594.01	5.784
594.34	5.768
594.67	5.771
595.00	5.775
595.34	5.776
595.67	5.804
596.00	5.829
596.33	5.841
596.66	5.885
596.99	5.889
597.32	5.913
597.65	5.942
597.99	5.979
598.32	6.003
598.65	6.030
598.98	6.071
599.31	6.067
599.64	6.084
599.97	6.106
600.30	6.103
600.63	6.120
600.96	6.115
601.30	6.105
601.63	6.118
601.96	6.121
602.29	6.123
602.62	6.111
602.95	6.150
603.28	6.164
603.61	6.183
603.94	6.191
604.27	6.220
604.60	6.244
604.93	6.265
605.26	6.293
605.59	6.315
605.92	6.373
606.25	6.401
606.58	6.431
606.91	6.459
607.24	6.480
607.57	6.528
607.90	6.565
608.23	6.589
608.56	6.648
608.89	6.678
609.22	6.713
609.55	6.707
609.88	6.751
610.21	6.765
610.54	6.789
610.87	6.833
611.20	6.878
611.53	6.900
611.86	6.924
612.19	6.938
612.52	6.958
612.85	7.004
613.18	7.032
613.51	7.070
613.84	7.095
614.17	7.131
614.49	7.149
614.82	7.144
615.15	7.177
615.48	7.200
615.81	7.252
616.14	7.290
616.47	7.293
616.80	7.344
617.13	7.362
617.46	7.409
617.78	7.457
618.11	7.482
618.44	7.510
618.77	7.531
619.10	7.580
619.43	7.587
619.76	7.607
620.09	7.662
620.41	7.676
620.74	7.690
621.07	7.726
621.40	7.748
621.73	7.789
622.06	7.828
622.38	7.856
622.71	7.902
623.04	7.933
623.37	7.954
623.70	7.960
624.02	7.977
624.35	7.997
624.68	8.023
625.01	8.016
625.34	8.043
625.66	8.047
625.99	8.051
626.32	8.074
626.65	8.078
626.98	8.103
627.30	8.153
627.63	8.202
627.96	8.238
628.29	8.266
628.61	8.311
628.94	8.340
629.27	8.386
629.60	8.440
629.92	8.469
630.25	8.527
630.58	8.561
630.91	8.573
631.23	8.612
631.56	8.649
631.89	8.651
632.21	8.678
632.54	8.681
632.87	8.695
633.19	8.709
633.52	8.714
633.85	8.738
634.18	8.757
634.50	8.798
634.83	8.776
635.16	8.800
635.48	8.822
635.81	8.848
636.14	8.910
636.46	8.938
636.79	8.953
637.11	9.005
637.44	9.033
637.77	9.043
638.09	9.028
638.42	9.060
638.75	9.067
639.07	9.100
639.40	9.140
639.73	9.141
640.05	9.180
640.38	9.241
640.70	9.243
641.03	9.264
641.36	9.341
641.68	9.414
642.01	9.481
642.33	9.521
642.66	9.577
642.98	9.593
643.31	9.640
643.64	9.662
643.96	9.697
644.29	9.729
644.61	9.760
644.94	9.762
645.26	9.785
645.59	9.772
645.91	9.779
646.24	9.813
646.56	9.830
646.89	9.839
647.22	9.848
647.54	9.840
647.87	9.869
648.19	9.906
648.52	9.905
648.84	9.901
649.17	9.948
649.49	9.969
649.82	9.981
650.14	10.018
650.47	10.031
650.79	10.062
651.11	10.094
651.44	10.131
651.76	10.122
652.09	10.165
652.41	10.211
652.74	10.265
653.06	10.344
653.39	10.354
653.71	10.402
654.04	10.424
654.36	10.421
654.68	10.424
655.01	10.360
655.33	10.372
655.66	10.379
655.98	10.353
656.30	10.315
656.63	10.276
656.95	10.239
657.28	10.227
657.60	10.230
657.92	10.228
658.25	10.273
658.57	10.330
658.90	10.349
659.22	10.412
659.54	10.456
