OOIBase32 Version 2.0.0.6 Data File
++++++++++++++++++++++++++++++++++++
Date: 01-19-2012, 16:29:52
User: Valued Ocean Optics Customer
Spectrometer Serial Number: USB2E2917
Spectrometer Channel: Master
Integration Time (msec): 5
Spectra Averaged: 10
Boxcar Smoothing: 5
Correct for Electrical Dark: Enabled
Time Normalized: Disabled
Dual-beam Reference: Disabled
Reference Channel: Master
Temperature: Not acquired
Spectrometer Type: S2000
ADC Type: USB2000
Number of Pixels in File: 2048
Graph Title: 
>>>>>Begin Spectral Data<<<<<
180.30	0.000
180.67	0.000
181.03	0.396
181.40	13.738
181.77	299.654
182.14	-359.420
182.51	299.845
182.88	264.811
183.25	-431.505
183.62	-181.393
183.99	56.409
184.36	205.778
184.73	-496.059
185.10	-15.144
185.46	6855.208
185.83	265.945
186.20	37.709
186.57	-141.044
186.94	215.714
187.31	185.297
187.68	273.729
188.05	234.123
188.42	461.313
188.78	-1087.336
189.15	-2710.945
189.52	-168.375
189.89	-53.295
190.26	-63.877
190.63	-44.396
191.00	-33.575
191.37	-12.481
191.73	-7.463
192.10	-1.625
192.47	-8.940
192.84	17.023
193.21	28.965
193.58	23.404
193.94	40.288
194.31	46.064
194.68	42.122
195.05	37.025
195.42	35.638
195.79	50.666
196.15	46.559
196.52	42.186
196.89	48.179
197.26	40.966
197.63	17.680
198.00	-58.971
198.36	-30.352
198.73	-12.340
199.10	-7.117
199.47	-55.191
199.84	-54.068
200.20	-64.919
200.57	-31.122
200.94	-26.702
201.31	-42.809
201.68	-38.559
202.04	24.223
202.41	2.681
202.78	8.069
203.15	-7.459
203.51	33.683
203.88	48.007
204.25	35.977
204.62	-1.609
204.98	-52.649
205.35	-85.520
205.72	-27.179
206.09	-85.550
206.46	-31.874
206.82	-67.885
207.19	-47.622
207.56	-96.337
207.92	-108.178
208.29	-68.627
208.66	-27.147
209.03	-22.141
209.39	-19.390
209.76	-25.221
210.13	-16.466
210.50	-24.279
210.86	-24.528
211.23	-36.163
211.60	-30.843
211.96	-24.092
212.33	-83.656
212.70	-166.268
213.07	-173.750
213.43	-110.305
213.80	-179.690
214.17	-273.298
214.53	-1029.848
214.90	-328.433
215.27	-198.752
215.63	-299.610
216.00	-355.742
216.37	-263.427
216.74	-78.337
217.10	-47.832
217.47	-39.252
217.84	-28.605
218.20	-44.369
218.57	-12.390
218.94	-12.617
219.30	-15.378
219.67	-11.289
220.04	-12.656
220.40	2.723
220.77	-12.781
221.13	-21.193
221.50	-33.898
221.87	-42.760
222.23	-28.299
222.60	-29.596
222.97	-21.707
223.33	-20.401
223.70	-27.677
224.07	-30.430
224.43	-36.569
224.80	-33.085
225.16	-36.173
225.53	-34.954
225.90	-37.410
226.26	-39.725
226.63	-43.107
226.99	-44.209
227.36	-44.466
227.73	-41.612
228.09	-39.924
228.46	-41.944
228.82	-40.236
229.19	-38.004
229.56	-39.726
229.92	-37.757
230.29	-38.657
230.65	-37.405
231.02	-38.374
231.38	-36.842
231.75	-40.420
232.12	-39.209
232.48	-37.406
232.85	-35.027
233.21	-35.693
233.58	-35.184
233.94	-34.849
234.31	-31.658
234.68	-27.408
235.04	-23.988
235.41	-22.824
235.77	-24.984
236.14	-25.061
236.50	-22.900
236.87	-26.408
237.23	-25.308
237.60	-26.832
237.96	-26.464
238.33	-27.350
238.69	-30.440
239.06	-31.962
239.42	-33.143
239.79	-31.566
240.15	-33.111
240.52	-33.353
240.88	-34.119
241.25	-33.981
241.61	-33.063
241.98	-32.781
242.34	-33.037
242.71	-33.186
243.07	-33.200
243.44	-32.935
243.80	-32.687
244.17	-31.520
244.53	-32.637
244.90	-32.920
245.26	-33.194
245.63	-33.196
245.99	-34.271
246.36	-34.130
246.72	-33.662
247.09	-33.350
247.45	-33.417
247.81	-33.707
248.18	-34.462
248.54	-33.371
248.91	-32.866
249.27	-32.628
249.64	-33.179
250.00	-32.092
250.36	-31.670
250.73	-31.230
251.09	-31.473
251.46	-31.215
251.82	-29.466
252.19	-27.589
252.55	-28.315
252.91	-28.567
253.28	-28.934
253.64	-27.850
254.01	-27.636
254.37	-28.474
254.73	-29.273
255.10	-28.805
255.46	-28.936
255.83	-29.917
256.19	-31.749
256.55	-31.371
256.92	-31.184
257.28	-31.602
257.65	-31.637
258.01	-31.784
258.37	-31.501
258.74	-31.579
259.10	-32.155
259.46	-32.404
259.83	-32.330
260.19	-31.799
260.55	-31.790
260.92	-31.423
261.28	-31.155
261.64	-30.679
262.01	-29.583
262.37	-29.079
262.73	-28.589
263.10	-28.146
263.46	-27.829
263.82	-28.308
264.19	-28.896
264.55	-28.924
264.91	-29.649
265.28	-29.227
265.64	-29.508
266.00	-30.895
266.37	-31.879
266.73	-31.890
267.09	-31.782
267.46	-31.892
267.82	-31.851
268.18	-31.943
268.54	-32.327
268.91	-31.671
269.27	-31.544
269.63	-31.809
270.00	-31.988
270.36	-31.194
270.72	-31.196
271.08	-31.346
271.45	-30.682
271.81	-30.352
272.17	-29.808
272.53	-29.823
272.90	-30.654
273.26	-30.954
273.62	-30.934
273.98	-30.566
274.35	-30.933
274.71	-30.654
275.07	-30.157
275.43	-30.717
275.80	-31.114
276.16	-31.184
276.52	-30.663
276.88	-30.149
277.25	-30.229
277.61	-30.039
277.97	-29.917
278.33	-30.117
278.69	-29.870
279.06	-29.993
279.42	-29.643
279.78	-29.425
280.14	-29.421
280.50	-29.818
280.87	-29.325
281.23	-29.095
281.59	-28.851
281.95	-28.976
282.31	-28.854
282.68	-29.211
283.04	-29.339
283.40	-29.509
283.76	-29.265
284.12	-29.233
284.48	-29.027
284.85	-28.906
285.21	-28.518
285.57	-28.385
285.93	-28.531
286.29	-28.516
286.65	-28.529
287.02	-28.188
287.38	-28.092
287.74	-27.995
288.10	-27.711
288.46	-27.650
288.82	-28.172
289.18	-28.630
289.54	-29.068
289.91	-28.495
290.27	-28.078
290.63	-27.971
290.99	-27.772
291.35	-27.525
291.71	-27.973
292.07	-28.066
292.43	-27.816
292.79	-27.055
293.16	-26.789
293.52	-26.660
293.88	-26.666
294.24	-26.729
294.60	-26.535
294.96	-26.659
295.32	-26.937
295.68	-26.494
296.04	-26.281
296.40	-26.207
296.76	-26.546
297.12	-26.535
297.49	-26.530
297.85	-26.412
298.21	-26.524
298.57	-26.365
298.93	-26.570
299.29	-26.434
299.65	-26.821
300.01	-26.839
300.37	-26.727
300.73	-26.445
301.09	-26.156
301.45	-25.879
301.81	-25.865
302.17	-25.837
302.53	-25.752
302.89	-25.421
303.25	-25.323
303.61	-25.165
303.97	-25.298
304.33	-25.370
304.69	-25.346
305.05	-25.220
305.41	-25.190
305.77	-25.148
306.13	-24.947
306.49	-24.923
306.85	-24.965
307.21	-24.937
307.57	-24.595
307.93	-24.492
308.29	-24.109
308.65	-24.101
309.01	-24.130
309.37	-24.146
309.73	-24.381
310.09	-24.303
310.45	-24.274
310.81	-24.177
311.17	-23.953
311.53	-24.025
311.89	-24.001
312.25	-24.256
312.61	-24.015
312.96	-24.269
313.32	-24.339
313.68	-23.860
314.04	-23.838
314.40	-23.800
314.76	-23.892
315.12	-23.750
315.48	-23.724
315.84	-23.441
316.20	-23.390
316.56	-23.672
316.92	-23.566
317.27	-23.182
317.63	-23.165
317.99	-23.151
318.35	-22.935
318.71	-22.817
319.07	-22.871
319.43	-22.787
319.79	-22.700
320.15	-22.459
320.50	-22.387
320.86	-22.206
321.22	-22.235
321.58	-22.163
321.94	-21.960
322.30	-21.813
322.66	-21.950
323.01	-21.875
323.37	-21.862
323.73	-21.917
324.09	-21.947
324.45	-21.816
324.81	-21.930
325.17	-21.796
325.52	-22.142
325.88	-22.501
326.24	-22.598
326.60	-22.225
326.96	-22.189
327.31	-21.969
327.67	-21.968
328.03	-22.181
328.39	-22.081
328.75	-21.804
329.11	-22.024
329.46	-21.702
329.82	-21.441
330.18	-21.602
330.54	-21.768
330.90	-21.940
331.25	-22.197
331.61	-22.202
331.97	-21.949
332.33	-21.958
332.68	-22.070
333.04	-21.874
333.40	-21.864
333.76	-21.662
334.11	-21.423
334.47	-21.293
334.83	-21.195
335.19	-20.968
335.54	-20.887
335.90	-20.972
336.26	-21.042
336.62	-20.968
336.97	-21.061
337.33	-21.091
337.69	-21.224
338.05	-21.433
338.40	-21.566
338.76	-21.648
339.12	-21.436
339.48	-21.578
339.83	-21.500
340.19	-21.372
340.55	-21.284
340.90	-21.214
341.26	-21.002
341.62	-21.014
341.97	-20.903
342.33	-20.732
342.69	-20.588
343.04	-21.017
343.40	-21.068
343.76	-21.029
344.12	-21.043
344.47	-21.177
344.83	-21.206
345.19	-21.426
345.54	-21.529
345.90	-21.794
346.26	-21.802
346.61	-21.678
346.97	-21.449
347.32	-21.370
347.68	-21.488
348.04	-21.477
348.39	-21.438
348.75	-21.489
349.11	-21.327
349.46	-21.161
349.82	-20.921
350.18	-20.816
350.53	-20.967
350.89	-20.820
351.24	-20.731
351.60	-20.546
351.96	-20.772
352.31	-20.705
352.67	-20.752
353.02	-20.799
353.38	-20.808
353.74	-20.853
354.09	-20.975
354.45	-21.108
354.80	-21.349
355.16	-21.410
355.52	-21.500
355.87	-21.324
356.23	-21.492
356.58	-21.422
356.94	-21.413
357.29	-21.405
357.65	-21.336
358.00	-21.343
358.36	-21.202
358.72	-21.261
359.07	-21.224
359.43	-21.360
359.78	-21.270
360.14	-21.231
360.49	-21.264
360.85	-21.151
361.20	-21.123
361.56	-21.170
361.91	-21.150
362.27	-21.196
362.62	-21.074
362.98	-21.185
363.33	-21.014
363.69	-21.055
364.04	-21.162
364.40	-21.170
364.75	-21.330
365.11	-21.493
365.46	-21.526
365.82	-21.570
366.17	-21.534
366.53	-21.612
366.88	-21.501
367.24	-21.488
367.59	-21.477
367.95	-21.263
368.30	-21.127
368.66	-21.086
369.01	-20.958
369.37	-20.827
369.72	-20.756
370.08	-20.775
370.43	-20.601
370.78	-20.660
371.14	-20.770
371.49	-20.789
371.85	-20.872
372.20	-20.857
372.56	-20.851
372.91	-20.897
373.26	-20.956
373.62	-20.843
373.97	-20.888
374.33	-21.015
374.68	-20.911
375.03	-20.800
375.39	-20.796
375.74	-20.738
376.10	-20.851
376.45	-20.768
376.80	-20.641
377.16	-20.601
377.51	-20.741
377.87	-20.688
378.22	-20.719
378.57	-20.735
378.93	-20.816
379.28	-20.794
379.63	-20.746
379.99	-20.586
380.34	-20.612
380.70	-20.716
381.05	-20.685
381.40	-20.642
381.76	-20.625
382.11	-20.568
382.46	-20.567
382.82	-20.576
383.17	-20.582
383.52	-20.521
383.88	-20.585
384.23	-20.587
384.58	-20.526
384.94	-20.633
385.29	-20.610
385.64	-20.556
385.99	-20.619
386.35	-20.651
386.70	-20.512
387.05	-20.485
387.41	-20.555
387.76	-20.531
388.11	-20.524
388.47	-20.547
388.82	-20.476
389.17	-20.545
389.52	-20.552
389.88	-20.391
390.23	-20.368
390.58	-20.382
390.93	-20.348
391.29	-20.327
391.64	-20.323
391.99	-20.272
392.34	-20.177
392.70	-20.183
393.05	-20.122
393.40	-20.089
393.75	-20.132
394.11	-20.168
394.46	-20.152
394.81	-20.191
395.16	-20.237
395.52	-20.269
395.87	-20.277
396.22	-20.328
396.57	-20.363
396.92	-20.382
397.28	-20.387
397.63	-20.421
397.98	-20.273
398.33	-20.282
398.68	-20.307
399.04	-20.246
399.39	-20.202
399.74	-20.192
400.09	-20.144
400.44	-20.060
400.80	-19.977
401.15	-19.932
401.50	-19.867
401.85	-19.837
402.20	-19.758
402.55	-19.719
402.90	-19.657
403.26	-19.599
403.61	-19.560
403.96	-19.571
404.31	-19.533
404.66	-19.493
405.01	-19.462
405.36	-19.454
405.72	-19.473
406.07	-19.535
406.42	-19.483
406.77	-19.536
407.12	-19.595
407.47	-19.664
407.82	-19.704
408.17	-19.684
408.53	-19.683
408.88	-19.684
409.23	-19.713
409.58	-19.710
409.93	-19.663
410.28	-19.604
410.63	-19.631
410.98	-19.632
411.33	-19.551
411.68	-19.468
412.03	-19.446
412.38	-19.439
412.73	-19.467
413.09	-19.431
413.44	-19.419
413.79	-19.461
414.14	-19.524
414.49	-19.508
414.84	-19.478
415.19	-19.530
415.54	-19.567
415.89	-19.603
416.24	-19.638
416.59	-19.651
416.94	-19.622
417.29	-19.630
417.64	-19.605
417.99	-19.578
418.34	-19.549
418.69	-19.535
419.04	-19.502
419.39	-19.479
419.74	-19.439
420.09	-19.435
420.44	-19.384
420.79	-19.385
421.14	-19.445
421.49	-19.425
421.84	-19.448
422.19	-19.474
422.54	-19.489
422.89	-19.471
423.24	-19.498
423.59	-19.550
423.94	-19.544
424.29	-19.542
424.64	-19.544
424.99	-19.482
425.34	-19.495
425.68	-19.456
426.03	-19.414
426.38	-19.384
426.73	-19.412
427.08	-19.363
427.43	-19.342
427.78	-19.292
428.13	-19.336
428.48	-19.345
428.83	-19.323
429.18	-19.325
429.53	-19.367
429.87	-19.341
430.22	-19.341
430.57	-19.342
430.92	-19.355
431.27	-19.341
431.62	-19.386
431.97	-19.378
432.32	-19.404
432.67	-19.400
433.01	-19.424
433.36	-19.361
433.71	-19.382
434.06	-19.378
434.41	-19.362
434.76	-19.320
435.11	-19.288
435.45	-19.262
435.80	-19.250
436.15	-19.161
436.50	-19.135
436.85	-19.088
437.20	-19.121
437.54	-19.086
437.89	-19.059
438.24	-19.089
438.59	-19.149
438.94	-19.170
439.29	-19.185
439.63	-19.192
439.98	-19.240
440.33	-19.264
440.68	-19.275
441.03	-19.302
441.37	-19.328
441.72	-19.324
442.07	-19.327
442.42	-19.280
442.76	-19.323
443.11	-19.321
443.46	-19.321
443.81	-19.346
444.16	-19.338
444.50	-19.350
444.85	-19.348
445.20	-19.391
445.55	-19.436
445.89	-19.454
446.24	-19.483
446.59	-19.469
446.94	-19.455
447.28	-19.454
447.63	-19.418
447.98	-19.455
448.32	-19.467
448.67	-19.428
449.02	-19.385
449.37	-19.338
449.71	-19.263
450.06	-19.212
450.41	-19.196
450.75	-19.240
451.10	-19.243
451.45	-19.247
451.79	-19.216
452.14	-19.192
452.49	-19.189
452.84	-19.180
453.18	-19.207
453.53	-19.200
453.88	-19.183
454.22	-19.202
454.57	-19.139
454.92	-19.166
455.26	-19.188
455.61	-19.230
455.95	-19.250
456.30	-19.285
456.65	-19.299
456.99	-19.313
457.34	-19.326
457.69	-19.371
458.03	-19.340
458.38	-19.338
458.73	-19.337
459.07	-19.307
459.42	-19.280
459.76	-19.278
460.11	-19.234
460.46	-19.175
460.80	-19.129
461.15	-19.128
461.49	-19.076
461.84	-19.080
462.19	-19.096
462.53	-19.060
462.88	-19.029
463.22	-19.008
463.57	-18.989
463.91	-18.943
464.26	-18.949
464.61	-18.919
464.95	-18.829
465.30	-18.789
465.64	-18.738
465.99	-18.701
466.33	-18.654
466.68	-18.637
467.02	-18.596
467.37	-18.538
467.71	-18.534
468.06	-18.526
468.41	-18.477
468.75	-18.479
469.10	-18.493
469.44	-18.500
469.79	-18.500
470.13	-18.488
470.48	-18.499
470.82	-18.497
471.17	-18.474
471.51	-18.452
471.86	-18.439
472.20	-18.487
472.55	-18.501
472.89	-18.522
473.23	-18.502
473.58	-18.481
473.92	-18.494
474.27	-18.518
474.61	-18.530
474.96	-18.555
475.30	-18.592
475.65	-18.605
475.99	-18.603
476.34	-18.578
476.68	-18.591
477.02	-18.607
477.37	-18.664
477.71	-18.666
478.06	-18.654
478.40	-18.737
478.75	-18.872
479.09	-19.030
479.43	-19.238
479.78	-19.424
480.12	-19.595
480.47	-19.737
480.81	-19.859
481.15	-19.971
481.50	-20.100
481.84	-20.290
482.19	-20.474
482.53	-20.620
482.87	-20.624
483.22	-20.563
483.56	-20.545
483.90	-20.518
484.25	-20.462
484.59	-20.414
484.94	-20.330
485.28	-20.257
485.62	-20.099
485.97	-19.882
486.31	-19.673
486.65	-19.586
487.00	-19.544
487.34	-19.475
487.68	-19.408
488.03	-19.344
488.37	-19.285
488.71	-19.268
489.06	-19.202
489.40	-19.140
489.74	-19.108
490.09	-19.031
490.43	-18.969
490.77	-18.904
491.11	-18.809
491.46	-18.743
491.80	-18.658
492.14	-18.553
492.49	-18.423
492.83	-18.323
493.17	-18.209
493.51	-18.074
493.86	-18.005
494.20	-17.920
494.54	-17.854
494.88	-17.778
495.23	-17.690
495.57	-17.638
495.91	-17.578
496.25	-17.528
496.60	-17.448
496.94	-17.441
497.28	-17.349
497.62	-17.259
497.97	-17.188
498.31	-17.102
498.65	-16.999
498.99	-16.913
499.33	-16.808
499.68	-16.752
500.02	-16.622
500.36	-16.526
500.70	-16.355
501.04	-16.279
501.39	-16.210
501.73	-16.107
502.07	-16.005
502.41	-15.921
502.75	-15.811
503.09	-15.761
503.44	-15.666
503.78	-15.603
504.12	-15.510
504.46	-15.462
504.80	-15.367
505.14	-15.279
505.49	-15.171
505.83	-15.080
506.17	-14.974
506.51	-14.894
506.85	-14.799
507.19	-14.728
507.53	-14.622
507.87	-14.561
508.22	-14.447
508.56	-14.357
508.90	-14.227
509.24	-14.124
509.58	-14.012
509.92	-13.932
510.26	-13.817
510.60	-13.712
510.94	-13.562
511.28	-13.456
511.63	-13.315
511.97	-13.215
512.31	-13.105
512.65	-13.005
512.99	-12.917
513.33	-12.795
513.67	-12.714
514.01	-12.631
514.35	-12.510
514.69	-12.449
515.03	-12.406
515.37	-12.335
515.71	-12.222
516.05	-12.141
516.39	-12.074
516.73	-12.018
517.07	-11.944
517.41	-11.879
517.75	-11.836
518.09	-11.785
518.43	-11.721
518.77	-11.609
519.11	-11.523
519.45	-11.480
519.79	-11.405
520.13	-11.288
520.47	-11.171
520.81	-11.100
521.15	-11.016
521.49	-10.925
521.83	-10.803
522.17	-10.731
522.51	-10.698
522.85	-10.685
523.19	-10.639
523.53	-10.633
523.87	-10.636
524.21	-10.660
524.55	-10.700
524.89	-10.735
525.23	-10.739
525.57	-10.780
525.91	-10.799
526.25	-10.802
526.58	-10.796
526.92	-10.795
527.26	-10.782
527.60	-10.764
527.94	-10.716
528.28	-10.651
528.62	-10.558
528.96	-10.460
529.30	-10.345
529.64	-10.238
529.97	-10.122
530.31	-10.005
530.65	-9.888
530.99	-9.763
531.33	-9.661
531.67	-9.582
532.01	-9.487
532.35	-9.437
532.68	-9.386
533.02	-9.349
533.36	-9.281
533.70	-9.216
534.04	-9.167
534.38	-9.123
534.71	-9.059
535.05	-8.993
535.39	-8.933
535.73	-8.862
536.07	-8.790
536.41	-8.766
536.74	-8.744
537.08	-8.718
537.42	-8.673
537.76	-8.636
538.10	-8.606
538.43	-8.608
538.77	-8.629
539.11	-8.604
539.45	-8.624
539.79	-8.621
540.12	-8.580
540.46	-8.523
540.80	-8.468
541.14	-8.450
541.47	-8.372
541.81	-8.314
542.15	-8.240
542.49	-8.141
542.82	-8.074
543.16	-7.966
543.50	-7.863
543.84	-7.772
544.17	-7.709
544.51	-7.644
544.85	-7.608
545.18	-7.578
545.52	-7.518
545.86	-7.457
546.20	-7.396
546.53	-7.338
546.87	-7.271
547.21	-7.192
547.54	-7.150
547.88	-7.051
548.22	-6.995
548.55	-6.877
548.89	-6.811
549.23	-6.747
549.56	-6.697
549.90	-6.676
550.24	-6.615
550.57	-6.588
550.91	-6.567
551.25	-6.495
551.58	-6.503
551.92	-6.489
552.26	-6.457
552.59	-6.397
552.93	-6.351
553.27	-6.305
553.60	-6.232
553.94	-6.192
554.27	-6.132
554.61	-6.085
554.95	-6.069
555.28	-6.010
555.62	-5.939
555.95	-5.910
556.29	-5.898
556.63	-5.877
556.96	-5.816
557.30	-5.764
557.63	-5.653
557.97	-5.622
558.31	-5.572
558.64	-5.547
558.98	-5.506
559.31	-5.473
559.65	-5.432
559.98	-5.382
560.32	-5.323
560.65	-5.272
560.99	-5.236
561.33	-5.219
561.66	-5.192
562.00	-5.161
562.33	-5.080
562.67	-5.054
563.00	-5.011
563.34	-4.966
563.67	-4.934
564.01	-4.901
564.34	-4.900
564.68	-4.883
565.01	-4.831
565.35	-4.831
565.68	-4.763
566.02	-4.749
566.35	-4.725
566.69	-4.662
567.02	-4.634
567.36	-4.583
567.69	-4.562
568.03	-4.499
568.36	-4.386
568.69	-4.389
569.03	-4.281
569.36	-4.228
569.70	-4.209
570.03	-4.142
570.37	-4.104
570.70	-4.061
571.04	-3.991
571.37	-3.930
571.70	-3.899
572.04	-3.863
572.37	-3.815
572.71	-3.795
573.04	-3.727
573.37	-3.644
573.71	-3.590
574.04	-3.571
574.38	-3.480
574.71	-3.452
575.04	-3.381
575.38	-3.339
575.71	-3.369
576.05	-3.341
576.38	-3.271
576.71	-3.296
577.05	-3.269
577.38	-3.209
577.71	-3.154
578.05	-3.179
578.38	-3.175
578.71	-3.158
579.05	-3.118
579.38	-3.019
579.71	-2.985
580.05	-2.947
580.38	-2.920
580.71	-2.875
581.05	-2.842
581.38	-2.759
581.71	-2.669
582.05	-2.644
582.38	-2.585
582.71	-2.537
583.04	-2.513
583.38	-2.432
583.71	-2.403
584.04	-2.264
584.38	-2.238
584.71	-2.220
585.04	-2.217
585.37	-2.242
585.71	-2.157
586.04	-2.141
586.37	-2.088
586.70	-2.040
587.04	-1.985
587.37	-1.934
587.70	-1.931
588.03	-1.844
588.37	-1.777
588.70	-1.761
589.03	-1.655
589.36	-1.636
589.69	-1.593
590.03	-1.532
590.36	-1.526
590.69	-1.506
591.02	-1.510
591.35	-1.517
591.69	-1.487
592.02	-1.458
592.35	-1.430
592.68	-1.393
593.01	-1.359
593.35	-1.333
593.68	-1.326
594.01	-1.267
594.34	-1.234
594.67	-1.145
595.00	-1.077
595.34	-1.078
595.67	-1.035
596.00	-0.973
596.33	-0.947
596.66	-0.924
596.99	-0.835
597.32	-0.804
597.65	-0.757
597.99	-0.733
598.32	-0.725
598.65	-0.740
598.98	-0.714
599.31	-0.670
599.64	-0.621
599.97	-0.574
600.30	-0.534
600.63	-0.544
600.96	-0.504
601.30	-0.484
601.63	-0.452
601.96	-0.418
602.29	-0.347
602.62	-0.327
602.95	-0.303
603.28	-0.266
603.61	-0.279
603.94	-0.203
604.27	-0.171
604.60	-0.138
604.93	-0.102
605.26	-0.044
605.59	-0.025
605.92	0.019
606.25	0.103
606.58	0.093
606.91	0.124
607.24	0.174
607.57	0.162
607.90	0.181
608.23	0.242
608.56	0.266
608.89	0.326
609.22	0.343
609.55	0.395
609.88	0.405
610.21	0.462
610.54	0.505
610.87	0.558
611.20	0.621
611.53	0.658
611.86	0.671
612.19	0.676
612.52	0.647
