OOIBase32 Version 2.0.0.6 Data File
++++++++++++++++++++++++++++++++++++
Date: 01-22-2012, 21:09:31
User: Valued Ocean Optics Customer
Spectrometer Serial Number: USB2E2917
Spectrometer Channel: Master
Integration Time (msec): 4
Spectra Averaged: 10
Boxcar Smoothing: 5
Correct for Electrical Dark: Enabled
Time Normalized: Disabled
Dual-beam Reference: Disabled
Reference Channel: Master
Temperature: Not acquired
Spectrometer Type: S2000
ADC Type: USB2000
Number of Pixels in File: 2048
Graph Title: 
>>>>>Begin Spectral Data<<<<<
180.30	0.000
180.67	0.000
181.03	-145.460
181.40	97.842
181.77	40.819
182.14	-131.344
182.51	78.916
182.88	13.351
183.25	186.527
183.62	132.384
183.99	52.443
184.36	193.581
184.73	-99.617
185.10	1157.663
185.46	-57.695
185.83	-24.274
186.20	21.795
186.57	322.742
186.94	78.210
187.31	55.826
187.68	-2157.226
188.05	216.570
188.42	215.597
188.78	22.532
189.15	33.493
189.52	53.105
189.89	30.952
190.26	32.935
190.63	35.632
191.00	63.267
191.37	62.117
191.73	97.101
192.10	58.225
192.47	56.694
192.84	5.097
193.21	12.249
193.58	-130.364
193.94	-144.691
194.31	-81.136
194.68	-57.244
195.05	-95.378
195.42	-102.864
195.79	-92.461
196.15	-70.262
196.52	-51.832
196.89	-46.359
197.26	-41.553
197.63	-42.324
198.00	-37.097
198.36	-94.957
198.73	-127.608
199.10	8.348
199.47	7.389
199.84	35.981
200.20	42.567
200.57	28.623
200.94	56.557
201.31	49.310
201.68	56.029
202.04	47.491
202.41	46.571
202.78	46.684
203.15	41.581
203.51	42.560
203.88	30.393
204.25	21.882
204.62	21.889
204.98	1.643
205.35	-5.086
205.72	-27.385
206.09	-93.294
206.46	-51.812
206.82	-103.603
207.19	-130.969
207.56	-129.079
207.92	-120.802
208.29	-71.890
208.66	-52.879
209.03	-49.404
209.39	-37.877
209.76	-31.906
210.13	-2.314
210.50	-7.698
210.86	-15.171
211.23	-33.936
211.60	-70.466
211.96	-106.672
212.33	-232.511
212.70	7417.196
213.07	643.406
213.43	394.682
213.80	1140.804
214.17	228.889
214.53	1134.127
214.90	-97.739
215.27	-10.550
215.63	-22.809
216.00	2.591
216.37	16.539
216.74	-3.628
217.10	-9.427
217.47	-29.826
217.84	-32.182
218.20	-29.591
218.57	-23.517
218.94	-35.883
219.30	-34.865
219.67	-23.406
220.04	-16.214
220.40	-16.303
220.77	-12.441
221.13	-12.180
221.50	-0.906
221.87	3.652
222.23	14.123
222.60	11.212
222.97	2.444
223.33	-7.250
223.70	-13.137
224.07	-16.700
224.43	-16.547
224.80	-10.817
225.16	-10.794
225.53	-12.754
225.90	-15.220
226.26	-15.063
226.63	-15.044
226.99	-11.122
227.36	-8.309
227.73	-5.693
228.09	-5.319
228.46	-5.783
228.82	-6.765
229.19	-5.497
229.56	-7.049
229.92	-5.444
230.29	-6.461
230.65	-6.527
231.02	-7.913
231.38	-7.240
231.75	-7.739
232.12	-7.383
232.48	-7.766
232.85	-7.053
233.21	-8.018
233.58	-3.604
233.94	-4.684
234.31	-2.868
234.68	-3.293
235.04	-0.715
235.41	-1.145
235.77	-1.275
236.14	-0.277
236.50	2.232
236.87	3.305
237.23	4.706
237.60	1.995
237.96	2.303
238.33	0.180
238.69	1.630
239.06	0.712
239.42	0.074
239.79	0.347
240.15	0.712
240.52	0.462
240.88	-0.567
241.25	-1.424
241.61	-1.338
241.98	-1.161
242.34	-0.517
242.71	-1.284
243.07	-1.056
243.44	-0.048
243.80	-0.032
244.17	-0.639
244.53	-0.911
244.90	-0.415
245.26	-0.152
245.63	0.087
245.99	-0.126
246.36	-0.084
246.72	0.010
247.09	-0.277
247.45	-0.311
247.81	-0.203
248.18	0.299
248.54	0.881
248.91	0.776
249.27	0.761
249.64	1.232
250.00	1.832
250.36	2.012
250.73	1.957
251.09	2.197
251.46	1.587
251.82	1.414
252.19	1.083
252.55	0.467
252.91	0.641
253.28	0.605
253.64	0.063
254.01	-0.538
254.37	-0.059
254.73	0.128
255.10	-0.026
255.46	0.691
255.83	1.060
256.19	1.216
256.55	1.356
256.92	1.241
257.28	1.379
257.65	1.514
258.01	1.473
258.37	1.354
258.74	1.375
259.10	1.748
259.46	1.499
259.83	1.346
260.19	1.326
260.55	1.223
260.92	1.160
261.28	0.886
261.64	0.668
262.01	0.721
262.37	0.325
262.73	0.389
263.10	-0.156
263.46	0.090
263.82	-0.118
264.19	-0.399
264.55	-0.134
264.91	0.272
265.28	0.708
265.64	0.878
266.00	0.621
266.37	1.149
266.73	1.426
267.09	1.456
267.46	1.076
267.82	1.411
268.18	1.782
268.54	1.804
268.91	1.735
269.27	1.178
269.63	0.803
270.00	1.333
270.36	1.125
270.72	0.873
271.08	0.814
271.45	0.952
271.81	0.822
272.17	1.012
272.53	1.065
272.90	1.013
273.26	1.417
273.62	1.820
273.98	1.726
274.35	1.780
274.71	1.663
275.07	1.983
275.43	2.201
275.80	2.305
276.16	2.017
276.52	2.077
276.88	2.018
277.25	1.669
277.61	1.845
277.97	1.890
278.33	1.911
278.69	2.171
279.06	1.828
279.42	1.624
279.78	1.625
280.14	1.560
280.50	1.524
280.87	1.735
281.23	1.888
281.59	1.881
281.95	1.792
282.31	1.772
282.68	1.871
283.04	1.839
283.40	1.829
283.76	1.795
284.12	1.759
284.48	1.631
284.85	1.623
285.21	1.827
285.57	1.671
285.93	1.643
286.29	1.517
286.65	1.322
287.02	1.600
287.38	1.654
287.74	1.637
288.10	1.729
288.46	1.663
288.82	1.303
289.18	0.901
289.54	0.866
289.91	0.727
290.27	0.952
290.63	1.191
290.99	1.122
291.35	1.251
291.71	1.323
292.07	1.352
292.43	1.364
292.79	1.775
293.16	2.202
293.52	2.418
293.88	2.688
294.24	2.630
294.60	2.553
294.96	2.550
295.32	2.604
295.68	2.533
296.04	2.633
296.40	2.735
296.76	2.718
297.12	2.813
297.49	2.847
297.85	3.032
298.21	3.337
298.57	3.292
298.93	3.561
299.29	3.636
299.65	4.004
300.01	4.075
300.37	4.340
300.73	4.489
301.09	4.501
301.45	4.517
301.81	4.588
302.17	4.527
302.53	4.771
302.89	4.712
303.25	4.630
303.61	4.546
303.97	4.666
304.33	4.751
304.69	4.966
305.05	5.195
305.41	5.372
305.77	5.385
306.13	5.382
306.49	5.528
306.85	5.768
307.21	5.893
307.57	5.808
307.93	5.740
308.29	5.733
308.65	5.538
309.01	5.342
309.37	5.279
309.73	5.253
310.09	5.278
310.45	5.208
310.81	4.998
311.17	5.091
311.53	5.293
311.89	5.365
312.25	5.419
312.61	5.524
312.96	5.674
313.32	5.721
313.68	5.635
314.04	5.590
314.40	5.451
314.76	5.478
315.12	5.483
315.48	5.405
315.84	5.220
316.20	5.007
316.56	5.039
316.92	4.845
317.27	5.000
317.63	4.938
317.99	5.027
318.35	5.256
318.71	5.419
319.07	5.411
319.43	5.343
319.79	5.494
320.15	5.653
320.50	5.741
320.86	5.836
321.22	5.711
321.58	5.689
321.94	5.619
322.30	5.661
322.66	5.584
323.01	5.516
323.37	5.686
323.73	5.547
324.09	5.712
324.45	5.516
324.81	5.586
325.17	5.571
325.52	5.780
325.88	5.822
326.24	5.620
326.60	5.691
326.96	5.776
327.31	5.606
327.67	5.770
328.03	5.624
328.39	5.572
328.75	5.572
329.11	5.610
329.46	5.419
329.82	5.328
330.18	5.495
330.54	5.520
330.90	5.466
331.25	5.491
331.61	5.446
331.97	5.373
332.33	5.422
332.68	5.427
333.04	5.345
333.40	5.414
333.76	5.419
334.11	5.309
334.47	5.298
334.83	5.186
335.19	5.123
335.54	5.012
335.90	4.952
336.26	4.902
336.62	4.862
336.97	4.868
337.33	4.829
337.69	4.819
338.05	4.931
338.40	4.819
338.76	4.901
339.12	4.961
339.48	4.931
339.83	4.880
340.19	4.919
340.55	4.804
340.90	4.829
341.26	4.814
341.62	4.808
341.97	4.785
342.33	4.815
342.69	4.899
343.04	4.875
343.40	4.982
343.76	5.036
344.12	5.018
344.47	5.002
344.83	4.951
345.19	5.000
345.54	5.025
345.90	4.908
346.26	4.845
346.61	4.695
346.97	4.693
347.32	4.593
347.68	4.596
348.04	4.609
348.39	4.672
348.75	4.711
349.11	4.683
349.46	4.662
349.82	4.655
350.18	4.671
350.53	4.763
350.89	4.702
351.24	4.768
351.60	4.762
351.96	4.724
352.31	4.719
352.67	4.626
353.02	4.606
353.38	4.625
353.74	4.607
354.09	4.583
354.45	4.498
354.80	4.444
355.16	4.450
355.52	4.465
355.87	4.463
356.23	4.450
356.58	4.494
356.94	4.532
357.29	4.440
357.65	4.450
358.00	4.438
358.36	4.442
358.72	4.461
359.07	4.399
359.43	4.393
359.78	4.454
360.14	4.439
360.49	4.386
360.85	4.310
361.20	4.297
361.56	4.273
361.91	4.246
362.27	4.257
362.62	4.272
362.98	4.336
363.33	4.300
363.69	4.222
364.04	4.182
364.40	4.189
364.75	4.153
365.11	4.193
365.46	4.145
365.82	4.096
366.17	3.976
366.53	3.901
366.88	3.815
367.24	3.812
367.59	3.787
367.95	3.832
368.30	3.834
368.66	3.860
369.01	3.875
369.37	3.900
369.72	3.932
370.08	3.957
370.43	3.984
370.78	4.018
371.14	3.987
371.49	3.962
371.85	3.911
372.20	3.932
372.56	3.966
372.91	3.935
373.26	3.995
373.62	3.964
373.97	4.042
374.33	4.062
374.68	4.068
375.03	4.084
375.39	4.088
375.74	4.097
376.10	4.056
376.45	4.041
376.80	3.999
377.16	3.921
377.51	3.920
377.87	3.877
378.22	3.871
378.57	3.840
378.93	3.813
379.28	3.815
379.63	3.801
379.99	3.784
380.34	3.742
380.70	3.775
381.05	3.783
381.40	3.770
381.76	3.766
382.11	3.722
382.46	3.693
382.82	3.646
383.17	3.632
383.52	3.622
383.88	3.615
384.23	3.643
384.58	3.636
384.94	3.671
385.29	3.723
385.64	3.683
385.99	3.708
386.35	3.699
386.70	3.715
387.05	3.681
387.41	3.667
387.76	3.611
388.11	3.555
388.47	3.503
388.82	3.470
389.17	3.438
389.52	3.401
389.88	3.411
390.23	3.436
390.58	3.450
390.93	3.490
391.29	3.499
391.64	3.528
391.99	3.573
392.34	3.617
392.70	3.649
393.05	3.610
393.40	3.638
393.75	3.593
394.11	3.562
394.46	3.514
394.81	3.504
395.16	3.506
395.52	3.543
395.87	3.511
396.22	3.487
396.57	3.427
396.92	3.422
397.28	3.410
397.63	3.398
397.98	3.399
398.33	3.448
398.68	3.422
399.04	3.381
399.39	3.313
399.74	3.290
400.09	3.250
400.44	3.246
400.80	3.257
401.15	3.249
401.50	3.251
401.85	3.224
402.20	3.178
402.55	3.185
402.90	3.185
403.26	3.178
403.61	3.136
403.96	3.151
404.31	3.128
404.66	3.100
405.01	3.077
405.36	3.079
405.72	3.083
406.07	3.071
406.42	3.101
406.77	3.063
407.12	3.105
407.47	3.139
407.82	3.090
408.17	3.101
408.53	3.111
408.88	3.126
409.23	3.099
409.58	3.132
409.93	3.156
410.28	3.105
410.63	3.125
410.98	3.100
411.33	3.085
411.68	3.117
412.03	3.080
412.38	3.056
412.73	3.035
413.09	3.025
413.44	2.984
413.79	2.972
414.14	2.984
414.49	2.971
414.84	2.954
415.19	2.956
415.54	2.957
415.89	2.960
416.24	2.966
416.59	2.973
416.94	2.989
417.29	2.985
417.64	2.984
417.99	2.976
418.34	2.970
418.69	2.949
419.04	2.936
419.39	2.931
419.74	2.936
420.09	2.913
420.44	2.901
420.79	2.867
421.14	2.844
421.49	2.844
421.84	2.826
422.19	2.828
422.54	2.846
422.89	2.847
423.24	2.829
423.59	2.809
423.94	2.819
424.29	2.819
424.64	2.836
424.99	2.877
425.34	2.864
425.68	2.868
426.03	2.873
426.38	2.871
426.73	2.873
427.08	2.886
427.43	2.899
427.78	2.897
428.13	2.872
428.48	2.879
428.83	2.847
429.18	2.836
429.53	2.841
429.87	2.827
430.22	2.806
430.57	2.793
430.92	2.776
431.27	2.772
431.62	2.756
431.97	2.742
432.32	2.723
432.67	2.706
433.01	2.713
433.36	2.695
433.71	2.693
434.06	2.711
434.41	2.709
434.76	2.731
435.11	2.738
435.45	2.746
435.80	2.758
436.15	2.761
436.50	2.763
436.85	2.734
437.20	2.727
437.54	2.714
437.89	2.700
438.24	2.697
438.59	2.694
438.94	2.675
439.29	2.660
439.63	2.648
439.98	2.643
440.33	2.630
440.68	2.636
441.03	2.633
441.37	2.630
441.72	2.620
442.07	2.614
442.42	2.598
442.76	2.598
443.11	2.615
443.46	2.619
443.81	2.618
444.16	2.622
444.50	2.617
444.85	2.624
445.20	2.623
445.55	2.624
445.89	2.610
446.24	2.612
446.59	2.612
446.94	2.591
447.28	2.594
447.63	2.583
447.98	2.575
448.32	2.570
448.67	2.557
449.02	2.550
449.37	2.552
449.71	2.555
450.06	2.552
450.41	2.544
450.75	2.535
451.10	2.533
451.45	2.532
451.79	2.532
452.14	2.543
452.49	2.541
452.84	2.531
453.18	2.524
453.53	2.519
453.88	2.501
454.22	2.485
454.57	2.485
454.92	2.474
455.26	2.466
455.61	2.469
455.95	2.450
456.30	2.453
456.65	2.459
456.99	2.452
457.34	2.462
457.69	2.461
458.03	2.465
458.38	2.485
458.73	2.499
459.07	2.493
459.42	2.491
459.76	2.493
460.11	2.480
460.46	2.476
460.80	2.464
461.15	2.441
461.49	2.433
461.84	2.427
462.19	2.411
462.53	2.380
462.88	2.371
463.22	2.357
463.57	2.372
463.91	2.376
464.26	2.377
464.61	2.377
464.95	2.396
465.30	2.392
465.64	2.399
465.99	2.386
466.33	2.388
466.68	2.377
467.02	2.378
467.37	2.365
467.71	2.351
468.06	2.327
468.41	2.316
468.75	2.291
469.10	2.303
469.44	2.297
469.79	2.282
470.13	2.279
470.48	2.296
470.82	2.291
471.17	2.279
471.51	2.274
471.86	2.286
472.20	2.275
472.55	2.266
472.89	2.251
473.23	2.237
473.58	2.222
473.92	2.209
474.27	2.176
474.61	2.170
474.96	2.165
475.30	2.155
475.65	2.153
475.99	2.165
476.34	2.167
476.68	2.156
477.02	2.157
477.37	2.167
477.71	2.173
478.06	2.194
478.40	2.204
478.75	2.224
479.09	2.248
479.43	2.273
479.78	2.295
480.12	2.337
480.47	2.371
480.81	2.398
481.15	2.433
481.50	2.475
481.84	2.519
482.19	2.559
482.53	2.585
482.87	2.600
483.22	2.582
483.56	2.557
483.90	2.514
484.25	2.488
484.59	2.476
484.94	2.447
485.28	2.410
485.62	2.369
485.97	2.328
486.31	2.288
486.65	2.258
487.00	2.255
487.34	2.270
487.68	2.285
488.03	2.288
488.37	2.276
488.71	2.270
489.06	2.257
489.40	2.241
489.74	2.222
490.09	2.216
490.43	2.210
490.77	2.206
491.11	2.193
491.46	2.194
491.80	2.178
492.14	2.158
492.49	2.147
492.83	2.129
493.17	2.105
493.51	2.088
493.86	2.068
494.20	2.039
494.54	2.016
494.88	2.012
495.23	1.984
495.57	1.970
495.91	1.970
496.25	1.970
496.60	1.961
496.94	1.955
497.28	1.943
497.62	1.936
497.97	1.941
498.31	1.947
498.65	1.929
498.99	1.932
499.33	1.955
499.68	1.946
500.02	1.924
500.36	1.920
500.70	1.918
501.04	1.914
501.39	1.921
501.73	1.916
502.07	1.900
502.41	1.897
502.75	1.892
503.09	1.875
503.44	1.873
503.78	1.879
504.12	1.878
504.46	1.883
504.80	1.893
505.14	1.885
505.49	1.903
505.83	1.896
506.17	1.904
506.51	1.909
506.85	1.904
507.19	1.907
507.53	1.914
507.87	1.925
508.22	1.932
508.56	1.928
508.90	1.923
509.24	1.913
509.58	1.920
509.92	1.909
510.26	1.896
510.60	1.888
510.94	1.878
511.28	1.864
511.63	1.847
511.97	1.836
512.31	1.821
512.65	1.822
512.99	1.810
513.33	1.820
513.67	1.832
514.01	1.848
514.35	1.871
514.69	1.889
515.03	1.897
515.37	1.914
515.71	1.920
516.05	1.926
516.39	1.930
516.73	1.939
517.07	1.933
517.41	1.937
517.75	1.928
518.09	1.907
518.43	1.897
518.77	1.891
519.11	1.871
519.45	1.859
519.79	1.861
520.13	1.853
520.47	1.853
520.81	1.850
521.15	1.845
521.49	1.852
521.83	1.860
522.17	1.851
522.51	1.860
522.85	1.896
523.19	1.928
523.53	1.949
523.87	1.978
524.21	1.992
524.55	2.030
524.89	2.054
525.23	2.074
525.57	2.099
525.91	2.131
526.25	2.142
526.58	2.149
526.92	2.157
527.26	2.170
527.60	2.173
527.94	2.182
528.28	2.173
528.62	2.163
528.96	2.154
529.30	2.144
529.64	2.126
529.97	2.127
530.31	2.114
530.65	2.099
530.99	2.074
531.33	2.059
531.67	2.053
532.01	2.053
532.35	2.053
532.68	2.059
533.02	2.065
533.36	2.057
533.70	2.039
534.04	2.036
534.38	2.026
534.71	2.020
535.05	2.014
535.39	1.988
535.73	1.969
536.07	1.957
536.41	1.945
536.74	1.939
537.08	1.954
537.42	1.968
537.76	1.975
538.10	2.001
538.43	2.018
538.77	2.041
539.11	2.060
539.45	2.071
539.79	2.084
540.12	2.088
540.46	2.088
540.80	2.079
541.14	2.081
541.47	2.086
541.81	2.067
542.15	2.059
542.49	2.040
542.82	2.026
543.16	2.003
543.50	1.990
543.84	1.972
544.17	1.943
544.51	1.939
544.85	1.927
545.18	1.889
545.52	1.871
545.86	1.859
546.20	1.841
546.53	1.841
546.87	1.833
547.21	1.809
547.54	1.825
547.88	1.827
548.22	1.809
548.55	1.781
548.89	1.787
549.23	1.777
549.56	1.773
549.90	1.768
550.24	1.744
550.57	1.744
550.91	1.740
551.25	1.710
551.58	1.721
551.92	1.698
552.26	1.696
552.59	1.673
552.93	1.684
553.27	1.664
553.60	1.653
553.94	1.648
554.27	1.639
554.61	1.643
554.95	1.658
555.28	1.631
555.62	1.652
555.95	1.644
556.29	1.663
556.63	1.671
556.96	1.648
557.30	1.676
557.63	1.663
557.97	1.688
558.31	1.675
558.64	1.667
558.98	1.665
559.31	1.663
559.65	1.672
559.98	1.660
560.32	1.653
560.65	1.666
560.99	1.645
561.33	1.659
561.66	1.651
562.00	1.647
562.33	1.635
562.67	1.653
563.00	1.665
563.34	1.692
563.67	1.710
564.01	1.703
564.34	1.724
564.68	1.739
565.01	1.736
565.35	1.740
565.68	1.753
566.02	1.772
566.35	1.776
566.69	1.757
567.02	1.725
567.36	1.730
567.69	1.706
568.03	1.687
568.36	1.679
568.69	1.703
569.03	1.699
569.36	1.698
569.70	1.687
570.03	1.694
570.37	1.712
570.70	1.730
571.04	1.743
571.37	1.759
571.70	1.774
572.04	1.766
572.37	1.765
572.71	1.768
573.04	1.771
573.37	1.768
573.71	1.749
574.04	1.753
574.38	1.747
574.71	1.725
575.04	1.738
575.38	1.741
575.71	1.745
576.05	1.719
576.38	1.714
576.71	1.708
577.05	1.708
577.38	1.692
577.71	1.658
578.05	1.637
578.38	1.622
578.71	1.608
579.05	1.571
579.38	1.560
579.71	1.541
580.05	1.515
580.38	1.501
580.71	1.488
581.05	1.484
581.38	1.486
581.71	1.474
582.05	1.448
582.38	1.409
582.71	1.394
583.04	1.388
583.38	1.381
583.71	1.382
584.04	1.370
584.38	1.359
584.71	1.351
585.04	1.335
585.37	1.347
585.71	1.373
586.04	1.397
586.37	1.411
586.70	1.417
587.04	1.447
587.37	1.448
587.70	1.460
588.03	1.450
588.37	1.442
588.70	1.444
589.03	1.428
589.36	1.401
589.69	1.379
590.03	1.365
590.36	1.361
590.69	1.311
591.02	1.293
591.35	1.259
591.69	1.242
592.02	1.228
592.35	1.245
592.68	1.221
593.01	1.204
593.35	1.199
593.68	1.182
594.01	1.161
594.34	1.161
594.67	1.145
595.00	1.124
595.34	1.121
595.67	1.095
596.00	1.041
596.33	1.024
596.66	0.994
596.99	0.979
597.32	0.957
597.65	0.897
597.99	0.856
598.32	0.807
598.65	0.756
598.98	0.707
599.31	0.694
599.64	0.691
599.97	0.696
600.30	0.706
600.63	0.680
600.96	0.700
601.30	0.717
601.63	0.728
601.96	0.734
602.29	0.781
602.62	0.804
602.95	0.816
603.28	0.792
603.61	0.764
603.94	0.739
604.27	0.734
604.60	0.706
604.93	0.673
605.26	0.650
605.59	0.637
605.92	0.581
606.25	0.572
606.58	0.554
606.91	0.537
607.24	0.526
607.57	0.511
607.90	0.486
608.23	0.452
608.56	0.446
608.89	0.435
609.22	0.396
609.55	0.400
609.88	0.358
610.21	0.314
610.54	0.274
610.87	0.219
611.20	0.176
611.53	0.125
611.86	0.091
612.19	0.096
612.52	0.047
612.85	0.049
613.18	-0.010
613.51	-0.072
613.84	-0.130
614.17	-0.122
614.49	-0.121
614.82	-0.081
615.15	-0.053
615.48	-0.061
615.81	-0.099
616.14	-0.107
616.47	-0.132
616.80	-0.133
617.13	-0.127
617.46	-0.097
617.78	-0.149
618.11	-0.147
618.44	-0.188
618.77	-0.228
619.10	-0.266
619.43	-0.264
619.76	-0.312
620.09	-0.322
620.41	-0.335
620.74	-0.320
621.07	-0.352
621.40	-0.302
621.73	-0.297
622.06	-0.287
622.38	-0.249
622.71	-0.207
623.04	-0.201
623.37	-0.129
623.70	-0.113
624.02	-0.091
624.35	-0.073
624.68	-0.021
625.01	0.005
625.34	0.010
625.66	0.003
625.99	-0.015
626.32	-0.033
626.65	-0.029
626.98	-0.064
627.30	-0.061
627.63	-0.083
627.96	-0.112
628.29	-0.156
628.61	-0.230
628.94	-0.266
629.27	-0.307
629.60	-0.328
629.92	-0.344
630.25	-0.366
630.58	-0.382
630.91	-0.450
631.23	-0.461
631.56	-0.480
631.89	-0.493
632.21	-0.468
632.54	-0.468
632.87	-0.464
633.19	-0.451
633.52	-0.463
633.85	-0.515
634.18	-0.537
634.50	-0.510
634.83	-0.522
635.16	-0.567
635.48	-0.582
635.81	-0.632
636.14	-0.674
636.46	-0.721
636.79	-0.770
637.11	-0.792
637.44	-0.825
637.77	-0.827
638.09	-0.886
638.42	-0.937
638.75	-0.929
639.07	-0.988
639.40	-1.032
639.73	-1.066
640.05	-1.082
640.38	-1.138
640.70	-1.166
641.03	-1.162
641.36	-1.206
641.68	-1.187
642.01	-1.143
642.33	-1.102
642.66	-1.078
642.98	-1.015
643.31	-1.019
643.64	-0.970
643.96	-0.901
644.29	-0.872
644.61	-0.884
644.94	-0.835
645.26	-0.790
645.59	-0.815
645.91	-0.843
646.24	-0.835
646.56	-0.863
646.89	-0.788
647.22	-0.808
647.54	-0.834
647.87	-0.831
648.19	-0.802
648.52	-0.856
648.84	-0.911
649.17	-0.876
649.49	-0.916
649.82	-0.897
650.14	-0.879
650.47	-0.938
650.79	-0.922
651.11	-0.941
651.44	-0.957
651.76	-0.927
652.09	-0.895
652.41	-0.853
652.74	-0.878
653.06	-0.860
653.39	-0.870
653.71	-0.848
654.04	-0.795
654.36	-0.798
