OOIBase32 Version 2.0.0.6 Data File
++++++++++++++++++++++++++++++++++++
Date: 01-18-2012, 22:38:51
User: Valued Ocean Optics Customer
Spectrometer Serial Number: USB2E2917
Spectrometer Channel: Master
Integration Time (msec): 5
Spectra Averaged: 10
Boxcar Smoothing: 5
Correct for Electrical Dark: Enabled
Time Normalized: Disabled
Dual-beam Reference: Disabled
Reference Channel: Master
Temperature: Not acquired
Spectrometer Type: S2000
ADC Type: USB2000
Number of Pixels in File: 2048
Graph Title: 
>>>>>Begin Spectral Data<<<<<
180.30	0.000
180.67	0.000
181.03	-15.765
181.40	-3966.138
181.77	310.652
182.14	186.207
182.51	-98.103
182.88	-313.781
183.25	107.115
183.62	253.779
183.99	28.311
184.36	-222.480
184.73	-51.633
185.10	128.415
185.46	10.582
185.83	22.614
186.20	337.958
186.57	-284.045
186.94	-26.328
187.31	-129.293
187.68	48.771
188.05	47.741
188.42	-0.407
188.78	-12.478
189.15	-3.745
189.52	-29.877
189.89	-37.174
190.26	-29.675
190.63	-10.644
191.00	-16.800
191.37	-24.040
191.73	-21.387
192.10	-3.158
192.47	6.546
192.84	-10.899
193.21	-24.115
193.58	-17.188
193.94	-31.728
194.31	-29.863
194.68	-47.338
195.05	-51.951
195.42	-44.207
195.79	-51.635
196.15	-47.766
196.52	-66.577
196.89	-52.895
197.26	-45.607
197.63	-88.784
198.00	-9.413
198.36	-24.382
198.73	-19.476
199.10	19.568
199.47	15.770
199.84	18.190
200.20	0.591
200.57	12.929
200.94	17.724
201.31	24.389
201.68	29.906
202.04	24.810
202.41	35.483
202.78	42.995
203.15	26.871
203.51	29.584
203.88	26.491
204.25	30.391
204.62	24.546
204.98	28.170
205.35	28.320
205.72	25.246
206.09	36.299
206.46	21.737
206.82	21.610
207.19	37.240
207.56	29.735
207.92	29.146
208.29	38.690
208.66	42.306
209.03	35.636
209.39	24.478
209.76	27.599
210.13	14.156
210.50	27.264
210.86	17.486
211.23	3.857
211.60	4.127
211.96	-2.220
212.33	-15.591
212.70	-15.501
213.07	-2.206
213.43	-2.132
213.80	-7.536
214.17	-9.046
214.53	-18.623
214.90	-13.423
215.27	-10.771
215.63	-3.530
216.00	-13.195
216.37	-16.324
216.74	-14.948
217.10	-42.250
217.47	-40.849
217.84	-36.953
218.20	-31.683
218.57	-25.775
218.94	-28.625
219.30	-35.199
219.67	-38.027
220.04	-31.148
220.40	-32.850
220.77	-35.974
221.13	-25.875
221.50	-16.270
221.87	-5.419
222.23	-1.763
222.60	2.427
222.97	0.660
223.33	15.591
223.70	11.227
224.07	17.293
224.43	14.608
224.80	12.103
225.16	11.597
225.53	12.985
225.90	11.918
226.26	10.045
226.63	8.489
226.99	11.745
227.36	7.995
227.73	7.627
228.09	4.680
228.46	6.281
228.82	7.202
229.19	7.848
229.56	6.704
229.92	7.167
230.29	5.841
230.65	6.423
231.02	3.811
231.38	4.812
231.75	7.516
232.12	10.088
232.48	11.064
232.85	12.741
233.21	12.844
233.58	14.475
233.94	10.500
234.31	12.029
234.68	10.993
235.04	10.787
235.41	12.590
235.77	11.696
236.14	11.267
236.50	9.875
236.87	7.650
237.23	4.329
237.60	3.450
237.96	4.778
238.33	5.768
238.69	6.185
239.06	6.620
239.42	5.544
239.79	5.341
240.15	4.779
240.52	4.236
240.88	3.899
241.25	4.813
241.61	4.080
241.98	4.668
242.34	4.568
242.71	4.044
243.07	3.184
243.44	2.887
243.80	3.096
244.17	3.119
244.53	2.998
244.90	3.018
245.26	2.928
245.63	3.051
245.99	2.884
246.36	2.878
246.72	3.188
247.09	3.611
247.45	4.456
247.81	4.773
248.18	5.336
248.54	5.261
248.91	5.218
249.27	5.765
249.64	6.032
250.00	6.157
250.36	6.616
250.73	7.159
251.09	7.153
251.46	6.268
251.82	5.602
252.19	5.324
252.55	6.015
252.91	7.162
253.28	6.399
253.64	5.680
254.01	5.407
254.37	4.742
254.73	3.715
255.10	4.088
255.46	4.146
255.83	4.412
256.19	4.302
256.55	4.282
256.92	3.922
257.28	3.654
257.65	3.726
258.01	3.581
258.37	3.255
258.74	3.475
259.10	2.869
259.46	2.570
259.83	2.933
260.19	2.648
260.55	2.402
260.92	2.523
261.28	2.877
261.64	3.253
262.01	3.493
262.37	3.909
262.73	4.354
263.10	5.185
263.46	5.495
263.82	4.431
264.19	4.563
264.55	5.136
264.91	4.579
265.28	4.328
265.64	3.776
266.00	3.233
266.37	3.161
266.73	2.217
267.09	2.288
267.46	2.310
267.82	2.662
268.18	2.811
268.54	2.421
268.91	2.573
269.27	3.060
269.63	3.624
270.00	3.824
270.36	3.616
270.72	3.894
271.08	3.546
271.45	3.910
271.81	3.997
272.17	3.570
272.53	3.198
272.90	3.328
273.26	2.604
273.62	2.151
273.98	2.478
274.35	2.356
274.71	1.805
275.07	1.897
275.43	1.339
275.80	1.086
276.16	1.383
276.52	1.933
276.88	1.739
277.25	2.037
277.61	1.964
277.97	2.028
278.33	2.124
278.69	2.754
279.06	2.738
279.42	2.735
279.78	2.801
280.14	2.769
280.50	2.789
280.87	3.305
281.23	3.554
281.59	3.588
281.95	3.124
282.31	2.942
282.68	3.140
283.04	3.552
283.40	3.433
283.76	3.232
284.12	3.161
284.48	3.296
284.85	3.053
285.21	2.809
285.57	3.185
285.93	3.413
286.29	3.802
286.65	3.476
287.02	3.292
287.38	3.583
287.74	3.858
288.10	4.149
288.46	4.120
288.82	3.966
289.18	4.111
289.54	3.471
289.91	3.432
290.27	3.212
290.63	3.357
290.99	2.992
291.35	2.831
291.71	2.851
292.07	2.458
292.43	2.158
292.79	2.309
293.16	2.368
293.52	2.777
293.88	2.546
294.24	2.798
294.60	2.720
294.96	2.725
295.32	2.675
295.68	2.641
296.04	2.707
296.40	2.900
296.76	2.717
297.12	2.603
297.49	2.675
297.85	3.054
298.21	2.945
298.57	2.848
298.93	3.052
299.29	3.330
299.65	3.413
300.01	3.717
300.37	3.797
300.73	3.898
301.09	4.056
301.45	3.904
301.81	3.912
302.17	3.650
302.53	4.013
302.89	3.823
303.25	3.794
303.61	3.635
303.97	3.641
304.33	3.532
304.69	3.661
305.05	3.735
305.41	3.984
305.77	3.913
306.13	4.246
306.49	4.025
306.85	4.127
307.21	4.009
307.57	4.152
307.93	4.222
308.29	4.327
308.65	4.327
309.01	4.186
309.37	3.976
309.73	4.075
310.09	4.073
310.45	4.082
310.81	4.056
311.17	4.082
311.53	4.091
311.89	3.999
312.25	3.785
312.61	3.676
312.96	3.722
313.32	3.762
313.68	3.660
314.04	3.387
314.40	3.363
314.76	3.349
315.12	3.474
315.48	3.438
315.84	3.331
316.20	3.564
316.56	3.840
316.92	3.927
317.27	3.871
317.63	3.752
317.99	3.991
318.35	4.191
318.71	4.113
319.07	4.021
319.43	3.914
319.79	3.982
320.15	3.980
320.50	3.821
320.86	3.813
321.22	3.834
321.58	3.793
321.94	3.785
322.30	3.724
322.66	3.737
323.01	3.792
323.37	3.788
323.73	3.708
324.09	3.554
324.45	3.349
324.81	3.240
325.17	3.283
325.52	3.428
325.88	3.354
326.24	3.326
326.60	3.402
326.96	3.292
327.31	3.303
327.67	3.426
328.03	3.477
328.39	3.714
328.75	3.693
329.11	3.739
329.46	3.762
329.82	3.762
330.18	3.730
330.54	3.666
330.90	3.673
331.25	3.621
331.61	3.476
331.97	3.451
332.33	3.308
332.68	3.396
333.04	3.434
333.40	3.305
333.76	3.389
334.11	3.332
334.47	3.350
334.83	3.250
335.19	3.308
335.54	3.342
335.90	3.475
336.26	3.415
336.62	3.395
336.97	3.379
337.33	3.411
337.69	3.386
338.05	3.482
338.40	3.438
338.76	3.518
339.12	3.603
339.48	3.647
339.83	3.497
340.19	3.547
340.55	3.573
340.90	3.480
341.26	3.397
341.62	3.362
341.97	3.293
342.33	3.355
342.69	3.352
343.04	3.237
343.40	3.241
343.76	3.293
344.12	3.294
344.47	3.273
344.83	3.341
345.19	3.383
345.54	3.327
345.90	3.318
346.26	3.386
346.61	3.436
346.97	3.436
347.32	3.358
347.68	3.460
348.04	3.513
348.39	3.536
348.75	3.462
349.11	3.529
349.46	3.543
349.82	3.478
350.18	3.417
350.53	3.366
350.89	3.466
351.24	3.498
351.60	3.367
351.96	3.257
352.31	3.169
352.67	3.171
353.02	3.051
353.38	3.070
353.74	3.017
354.09	3.037
354.45	3.008
354.80	2.952
355.16	3.004
355.52	3.011
355.87	3.067
356.23	3.105
356.58	3.068
356.94	3.088
357.29	3.097
357.65	3.242
358.00	3.220
358.36	3.219
358.72	3.143
359.07	3.140
359.43	3.162
359.78	3.190
360.14	3.190
360.49	3.161
360.85	3.148
361.20	3.080
361.56	3.027
361.91	3.009
362.27	2.981
362.62	3.022
362.98	2.949
363.33	2.945
363.69	2.927
364.04	2.951
364.40	3.017
364.75	3.137
365.11	3.217
365.46	3.245
365.82	3.192
366.17	3.150
366.53	3.131
366.88	3.150
367.24	3.111
367.59	3.093
367.95	3.099
368.30	3.031
368.66	2.969
369.01	2.927
369.37	2.885
369.72	2.888
370.08	2.949
370.43	2.975
370.78	2.987
371.14	2.986
371.49	3.088
371.85	3.133
372.20	3.196
372.56	3.199
372.91	3.185
373.26	3.140
373.62	3.158
373.97	3.140
374.33	3.112
374.68	3.125
375.03	3.133
375.39	3.017
375.74	3.040
376.10	3.055
376.45	3.063
376.80	3.076
377.16	3.132
377.51	3.175
377.87	3.292
378.22	3.314
378.57	3.383
378.93	3.434
379.28	3.496
379.63	3.440
379.99	3.495
380.34	3.535
380.70	3.621
381.05	3.674
381.40	3.697
381.76	3.706
382.11	3.750
382.46	3.692
382.82	3.700
383.17	3.673
383.52	3.681
383.88	3.626
384.23	3.603
384.58	3.541
384.94	3.597
385.29	3.625
385.64	3.583
385.99	3.622
386.35	3.639
386.70	3.679
387.05	3.771
387.41	3.818
387.76	3.886
388.11	3.920
388.47	3.974
388.82	3.974
389.17	4.022
389.52	4.070
389.88	4.071
390.23	4.130
390.58	4.154
390.93	4.189
391.29	4.201
391.64	4.254
391.99	4.367
392.34	4.427
392.70	4.471
393.05	4.502
393.40	4.498
393.75	4.549
394.11	4.573
394.46	4.567
394.81	4.556
395.16	4.561
395.52	4.511
395.87	4.431
396.22	4.387
396.57	4.380
396.92	4.345
397.28	4.373
397.63	4.338
397.98	4.351
398.33	4.386
398.68	4.409
399.04	4.450
399.39	4.501
399.74	4.512
400.09	4.574
400.44	4.560
400.80	4.585
401.15	4.596
401.50	4.647
401.85	4.673
402.20	4.691
402.55	4.711
402.90	4.715
403.26	4.711
403.61	4.749
403.96	4.769
404.31	4.823
404.66	4.847
405.01	4.893
405.36	4.916
405.72	4.912
406.07	4.899
406.42	4.937
406.77	4.982
407.12	5.045
407.47	5.061
407.82	5.060
408.17	5.105
408.53	5.143
408.88	5.174
409.23	5.177
409.58	5.241
409.93	5.314
410.28	5.300
410.63	5.311
410.98	5.306
411.33	5.352
411.68	5.408
412.03	5.436
412.38	5.468
412.73	5.453
413.09	5.509
413.44	5.539
413.79	5.558
414.14	5.603
414.49	5.672
414.84	5.740
415.19	5.794
415.54	5.832
415.89	5.861
416.24	5.900
416.59	5.979
416.94	6.009
417.29	6.028
417.64	6.062
417.99	6.102
418.34	6.111
418.69	6.119
419.04	6.120
419.39	6.156
419.74	6.164
420.09	6.173
420.44	6.181
420.79	6.197
421.14	6.207
421.49	6.210
421.84	6.231
422.19	6.240
422.54	6.263
422.89	6.276
423.24	6.272
423.59	6.261
423.94	6.275
424.29	6.266
424.64	6.276
424.99	6.281
425.34	6.293
425.68	6.296
426.03	6.301
426.38	6.284
426.73	6.296
427.08	6.309
427.43	6.369
427.78	6.386
428.13	6.400
428.48	6.421
428.83	6.453
429.18	6.498
429.53	6.530
429.87	6.548
430.22	6.594
430.57	6.637
430.92	6.630
431.27	6.649
431.62	6.625
431.97	6.644
432.32	6.658
432.67	6.671
433.01	6.652
433.36	6.658
433.71	6.670
434.06	6.662
434.41	6.662
434.76	6.687
435.11	6.687
435.45	6.748
435.80	6.770
436.15	6.789
436.50	6.809
436.85	6.840
437.20	6.849
437.54	6.857
437.89	6.871
438.24	6.875
438.59	6.873
438.94	6.872
439.29	6.856
439.63	6.842
439.98	6.820
440.33	6.803
440.68	6.804
441.03	6.776
441.37	6.781
441.72	6.788
442.07	6.791
442.42	6.793
442.76	6.807
443.11	6.802
443.46	6.828
443.81	6.837
444.16	6.845
444.50	6.825
444.85	6.818
445.20	6.805
445.55	6.772
445.89	6.749
446.24	6.728
446.59	6.686
446.94	6.679
447.28	6.640
447.63	6.594
447.98	6.559
448.32	6.523
448.67	6.515
449.02	6.494
449.37	6.500
449.71	6.483
450.06	6.467
450.41	6.487
450.75	6.481
451.10	6.484
451.45	6.499
451.79	6.495
452.14	6.529
452.49	6.515
452.84	6.534
453.18	6.511
453.53	6.526
453.88	6.560
454.22	6.555
454.57	6.557
454.92	6.582
455.26	6.615
455.61	6.635
455.95	6.657
456.30	6.700
456.65	6.728
456.99	6.774
457.34	6.811
457.69	6.849
458.03	6.873
458.38	6.897
458.73	6.906
459.07	6.920
459.42	6.937
459.76	6.935
460.11	6.935
460.46	6.929
460.80	6.930
461.15	6.913
461.49	6.902
461.84	6.905
462.19	6.942
462.53	6.965
462.88	6.999
463.22	7.028
463.57	7.075
463.91	7.115
464.26	7.169
464.61	7.219
464.95	7.262
465.30	7.305
465.64	7.336
465.99	7.345
466.33	7.390
466.68	7.404
467.02	7.425
467.37	7.441
467.71	7.450
468.06	7.463
468.41	7.459
468.75	7.479
469.10	7.468
469.44	7.480
469.79	7.508
470.13	7.494
470.48	7.496
470.82	7.517
471.17	7.516
471.51	7.529
471.86	7.511
472.20	7.520
472.55	7.509
472.89	7.506
473.23	7.507
473.58	7.493
473.92	7.493
474.27	7.483
474.61	7.470
474.96	7.469
475.30	7.468
475.65	7.474
475.99	7.467
476.34	7.458
476.68	7.451
477.02	7.450
477.37	7.456
477.71	7.450
478.06	7.456
478.40	7.489
478.75	7.560
479.09	7.650
479.43	7.748
479.78	7.856
480.12	7.967
480.47	8.068
480.81	8.161
481.15	8.242
481.50	8.325
481.84	8.426
482.19	8.535
482.53	8.620
482.87	8.652
483.22	8.628
483.56	8.616
483.90	8.610
484.25	8.601
484.59	8.595
484.94	8.573
485.28	8.545
485.62	8.490
485.97	8.404
486.31	8.330
486.65	8.324
487.00	8.377
487.34	8.412
487.68	8.425
488.03	8.445
488.37	8.456
488.71	8.472
489.06	8.501
489.40	8.537
489.74	8.575
490.09	8.608
490.43	8.622
490.77	8.628
491.11	8.630
491.46	8.643
491.80	8.658
492.14	8.680
492.49	8.720
492.83	8.747
493.17	8.805
493.51	8.862
493.86	8.942
494.20	9.006
494.54	9.092
494.88	9.197
495.23	9.314
495.57	9.449
495.91	9.556
496.25	9.682
496.60	9.815
496.94	9.891
497.28	10.004
497.62	10.115
497.97	10.239
498.31	10.372
498.65	10.521
498.99	10.667
499.33	10.778
499.68	10.931
500.02	11.063
500.36	11.216
500.70	11.409
501.04	11.563
501.39	11.751
501.73	11.939
502.07	12.133
502.41	12.309
502.75	12.479
503.09	12.699
503.44	12.895
503.78	13.100
504.12	13.311
504.46	13.515
504.80	13.742
505.14	13.940
505.49	14.172
505.83	14.385
506.17	14.588
506.51	14.821
506.85	15.001
507.19	15.217
507.53	15.432
507.87	15.641
508.22	15.850
508.56	16.049
508.90	16.235
509.24	16.398
509.58	16.589
509.92	16.783
510.26	16.954
510.60	17.142
510.94	17.332
511.28	17.508
511.63	17.693
511.97	17.867
512.31	18.042
512.65	18.265
512.99	18.480
513.33	18.692
513.67	18.937
514.01	19.189
514.35	19.449
514.69	19.686
515.03	19.937
515.37	20.148
515.71	20.373
516.05	20.563
516.39	20.729
516.73	20.896
517.07	21.051
517.41	21.202
517.75	21.321
518.09	21.426
518.43	21.509
518.77	21.566
519.11	21.661
519.45	21.753
519.79	21.907
520.13	22.023
520.47	22.151
520.81	22.324
521.15	22.454
521.49	22.624
521.83	22.785
522.17	22.972
522.51	23.173
522.85	23.344
523.19	23.568
523.53	23.843
523.87	24.145
524.21	24.469
524.55	24.719
524.89	24.982
525.23	25.221
525.57	25.426
525.91	25.624
526.25	25.803
526.58	25.968
526.92	26.124
527.26	26.200
527.60	26.258
527.94	26.292
528.28	26.329
528.62	26.337
528.96	26.347
529.30	26.370
529.64	26.372
529.97	26.376
530.31	26.389
530.65	26.354
530.99	26.364
531.33	26.396
531.67	26.432
532.01	26.476
532.35	26.527
532.68	26.543
533.02	26.574
533.36	26.593
533.70	26.606
534.04	26.623
534.38	26.656
534.71	26.672
535.05	26.697
535.39	26.713
535.73	26.727
536.07	26.782
536.41	26.881
536.74	27.002
537.08	27.126
537.42	27.256
537.76	27.389
538.10	27.535
538.43	27.673
538.77	27.809
539.11	27.902
539.45	28.032
539.79	28.134
540.12	28.207
540.46	28.222
540.80	28.261
541.14	28.297
541.47	28.306
541.81	28.302
542.15	28.311
542.49	28.295
542.82	28.300
543.16	28.276
543.50	28.234
543.84	28.206
544.17	28.220
544.51	28.211
544.85	28.198
545.18	28.188
545.52	28.202
545.86	28.207
546.20	28.212
546.53	28.218
546.87	28.196
547.21	28.212
547.54	28.227
547.88	28.242
548.22	28.259
548.55	28.310
548.89	28.365
549.23	28.382
549.56	28.405
549.90	28.436
550.24	28.480
550.57	28.531
550.91	28.588
551.25	28.607
551.58	28.664
551.92	28.719
552.26	28.750
552.59	28.804
552.93	28.846
553.27	28.899
553.60	28.980
553.94	29.026
554.27	29.085
554.61	29.097
554.95	29.174
555.28	29.187
555.62	29.218
555.95	29.240
556.29	29.278
556.63	29.319
556.96	29.340
557.30	29.352
557.63	29.348
557.97	29.426
558.31	29.501
558.64	29.532
558.98	29.584
559.31	29.614
559.65	29.667
559.98	29.706
560.32	29.748
560.65	29.796
560.99	29.822
561.33	29.893
561.66	29.914
562.00	29.938
562.33	29.985
562.67	30.038
563.00	30.050
563.34	30.079
563.67	30.127
564.01	30.178
564.34	30.189
564.68	30.209
565.01	30.225
565.35	30.255
565.68	30.280
566.02	30.303
566.35	30.317
566.69	30.401
567.02	30.468
567.36	30.490
567.69	30.510
568.03	30.586
568.36	30.658
568.69	30.696
569.03	30.725
569.36	30.737
569.70	30.784
570.03	30.805
570.37	30.825
570.70	30.806
571.04	30.831
571.37	30.854
571.70	30.860
572.04	30.842
572.37	30.891
572.71	30.917
573.04	30.967
573.37	30.998
573.71	31.046
574.04	31.037
574.38	31.064
574.71	31.050
575.04	31.030
575.38	31.070
575.71	31.121
576.05	31.133
576.38	31.139
576.71	31.143
577.05	31.136
577.38	31.125
577.71	31.146
578.05	31.169
578.38	31.199
578.71	31.236
579.05	31.254
579.38	31.259
579.71	31.268
580.05	31.310
580.38	31.301
580.71	31.275
581.05	31.325
581.38	31.342
581.71	31.357
582.05	31.394
582.38	31.416
582.71	31.404
583.04	31.425
583.38	31.395
583.71	31.415
584.04	31.446
584.38	31.512
584.71	31.550
585.04	31.582
585.37	31.624
585.71	31.688
586.04	31.732
586.37	31.778
586.70	31.796
587.04	31.882
587.37	31.879
587.70	31.904
588.03	31.953
588.37	31.949
588.70	32.037
589.03	32.049
589.36	32.027
589.69	32.041
590.03	32.056
590.36	32.080
590.69	32.076
591.02	32.051
591.35	32.038
591.69	32.047
592.02	32.076
592.35	32.031
592.68	32.053
593.01	32.049
593.35	32.096
593.68	32.105
594.01	32.097
594.34	32.084
594.67	32.117
595.00	32.143
595.34	32.129
595.67	32.100
596.00	32.111
596.33	32.087
596.66	32.091
596.99	32.050
597.32	32.067
597.65	32.100
597.99	32.081
598.32	32.069
598.65	32.078
598.98	32.078
599.31	32.093
599.64	32.117
599.97	32.128
600.30	32.164
600.63	32.184
600.96	32.157
601.30	32.185
601.63	32.216
601.96	32.255
602.29	32.296
602.62	32.284
602.95	32.288
603.28	32.240
603.61	32.240
603.94	32.224
604.27	32.247
604.60	32.256
604.93	32.195
605.26	32.223
605.59	32.230
605.92	32.201
606.25	32.209
606.58	32.210
606.91	32.261
607.24	32.261
607.57	32.251
607.90	32.236
608.23	32.246
608.56	32.278
608.89	32.286
609.22	32.257
609.55	32.258
609.88	32.262
610.21	32.254
610.54	32.234
610.87	32.237
611.20	32.243
611.53	32.263
611.86	32.290
612.19	32.276
612.52	32.274
612.85	32.265
613.18	32.277
613.51	32.276
613.84	32.343
614.17	32.278
614.49	32.317
614.82	32.301
615.15	32.238
615.48	32.233
615.81	32.289
616.14	32.261
616.47	32.294
616.80	32.251
617.13	32.193
617.46	32.162
617.78	32.229
618.11	32.243
618.44	32.272
618.77	32.290
619.10	32.289
619.43	32.261
619.76	32.265
620.09	32.256
620.41	32.272
620.74	32.339
621.07	32.322
621.40	32.295
621.73	32.216
622.06	32.213
622.38	32.199
622.71	32.135
623.04	32.094
623.37	32.092
623.70	32.058
624.02	32.077
624.35	32.070
624.68	32.042
625.01	32.024
625.34	32.063
625.66	32.022
625.99	32.014
626.32	32.010
626.65	32.016
626.98	31.971
627.30	31.983
627.63	31.923
627.96	31.886
628.29	31.887
628.61	31.878
628.94	31.893
629.27	31.890
629.60	31.882
629.92	31.902
630.25	31.841
630.58	31.848
630.91	31.814
631.23	31.806
631.56	31.752
631.89	31.688
632.21	31.671
632.54	31.606
632.87	31.588
633.19	31.549
633.52	31.490
633.85	31.505
634.18	31.524
634.50	31.549
634.83	31.523
635.16	31.545
635.48	31.537
635.81	31.498
636.14	31.434
636.46	31.438
636.79	31.442
637.11	31.405
637.44	31.390
637.77	31.352
638.09	31.285
638.42	31.316
638.75	31.314
639.07	31.302
639.40	31.297
639.73	31.284
640.05	31.259
640.38	31.246
640.70	31.253
641.03	31.207
641.36	31.181
641.68	31.184
642.01	31.135
642.33	31.108
642.66	31.088
642.98	31.159
643.31	31.196
643.64	31.202
643.96	31.184
644.29	31.176
644.61	31.194
644.94	31.155
645.26	31.079
645.59	31.056
645.91	31.074
646.24	31.093
646.56	31.005
646.89	30.949
647.22	30.859
647.54	30.854
647.87	30.786
648.19	30.743
