OOIBase32 Version 2.0.0.6 Data File
++++++++++++++++++++++++++++++++++++
Date: 01-20-2012, 22:34:25
User: Valued Ocean Optics Customer
Spectrometer Serial Number: USB2E2917
Spectrometer Channel: Master
Integration Time (msec): 4
Spectra Averaged: 10
Boxcar Smoothing: 5
Correct for Electrical Dark: Enabled
Time Normalized: Disabled
Dual-beam Reference: Disabled
Reference Channel: Master
Temperature: Not acquired
Spectrometer Type: S2000
ADC Type: USB2000
Number of Pixels in File: 2048
Graph Title: 
>>>>>Begin Spectral Data<<<<<
180.30	0.000
180.67	0.000
181.03	-100.645
181.40	39.089
181.77	34.572
182.14	406.455
182.51	-45.811
182.88	-10.766
183.25	107.166
183.62	82.583
183.99	63.147
184.36	150.218
184.73	97.779
185.10	-93.245
185.46	12.955
185.83	-42.459
186.20	-309.411
186.57	86.270
186.94	-81.628
187.31	47.326
187.68	391.255
188.05	-561.373
188.42	-405.460
188.78	-119.773
189.15	-92.464
189.52	-78.845
189.89	-110.318
190.26	-96.625
190.63	-72.690
191.00	-96.718
191.37	-141.001
191.73	-167.749
192.10	-178.609
192.47	-82.031
192.84	-110.800
193.21	-149.879
193.58	-162.857
193.94	-179.330
194.31	-80.451
194.68	-31.933
195.05	-26.668
195.42	-13.798
195.79	-15.892
196.15	-33.951
196.52	-63.560
196.89	-93.515
197.26	-95.283
197.63	-60.228
198.00	-43.104
198.36	-82.313
198.73	-92.427
199.10	-56.285
199.47	-41.255
199.84	-39.086
200.20	-22.274
200.57	-14.013
200.94	-19.163
201.31	-10.956
201.68	-33.690
202.04	-29.665
202.41	-21.938
202.78	-24.376
203.15	-59.450
203.51	-67.524
203.88	-39.809
204.25	-50.350
204.62	-46.721
204.98	-28.459
205.35	-26.361
205.72	-14.504
206.09	-19.114
206.46	-22.104
206.82	-33.223
207.19	-11.917
207.56	-14.998
207.92	-20.015
208.29	-15.599
208.66	-31.446
209.03	-38.353
209.39	-43.981
209.76	-41.410
210.13	-18.153
210.50	-9.313
210.86	-1.592
211.23	7.395
211.60	-2.443
211.96	-12.492
212.33	-3.871
212.70	1.775
213.07	13.026
213.43	11.058
213.80	12.315
214.17	9.871
214.53	0.365
214.90	-6.585
215.27	-6.354
215.63	1.003
216.00	11.279
216.37	13.369
216.74	4.651
217.10	-5.993
217.47	-9.491
217.84	-25.637
218.20	-29.256
218.57	-25.162
218.94	-17.497
219.30	-22.000
219.67	-23.706
220.04	-24.141
220.40	-33.109
220.77	-28.306
221.13	-23.395
221.50	-14.520
221.87	-3.918
222.23	-8.218
222.60	-2.245
222.97	0.391
223.33	2.620
223.70	2.146
224.07	3.773
224.43	5.098
224.80	3.038
225.16	1.333
225.53	1.273
225.90	-0.697
226.26	0.468
226.63	-1.114
226.99	-2.015
227.36	-1.700
227.73	-1.693
228.09	-2.709
228.46	-3.210
228.82	-2.754
229.19	-2.815
229.56	-4.274
229.92	-4.331
230.29	-4.759
230.65	-3.635
231.02	-4.501
231.38	-6.253
231.75	-6.632
232.12	-5.622
232.48	-4.066
232.85	-3.521
233.21	-3.544
233.58	-3.428
233.94	-1.863
234.31	-2.422
234.68	-3.929
235.04	-2.370
235.41	-1.944
235.77	-1.197
236.14	-2.371
236.50	-3.734
236.87	-2.342
237.23	-1.094
237.60	-0.461
237.96	-0.895
238.33	0.165
238.69	1.099
239.06	0.736
239.42	1.147
239.79	1.366
240.15	1.522
240.52	1.410
240.88	1.331
241.25	1.437
241.61	1.626
241.98	1.886
242.34	1.720
242.71	1.456
243.07	1.504
243.44	1.110
243.80	1.125
244.17	1.088
244.53	1.196
244.90	0.800
245.26	0.871
245.63	0.955
245.99	0.824
246.36	0.881
246.72	0.783
247.09	0.735
247.45	0.705
247.81	0.503
248.18	0.628
248.54	0.511
248.91	0.626
249.27	0.301
249.64	0.056
250.00	-0.007
250.36	-0.041
250.73	-0.326
251.09	-0.279
251.46	0.140
251.82	-0.046
252.19	-0.067
252.55	0.251
252.91	0.297
253.28	0.426
253.64	0.387
254.01	0.590
254.37	0.632
254.73	1.218
255.10	1.455
255.46	1.317
255.83	1.605
256.19	1.532
256.55	1.541
256.92	1.793
257.28	1.695
257.65	1.697
258.01	1.564
258.37	1.449
258.74	1.460
259.10	1.233
259.46	1.283
259.83	1.104
260.19	1.161
260.55	1.259
260.92	1.075
261.28	1.014
261.64	0.964
262.01	0.988
262.37	1.178
262.73	0.823
263.10	0.877
263.46	0.864
263.82	1.303
264.19	0.986
264.55	0.816
264.91	0.798
265.28	1.040
265.64	1.167
266.00	1.203
266.37	1.008
266.73	1.298
267.09	1.218
267.46	1.310
267.82	1.132
268.18	1.137
268.54	1.144
268.91	1.126
269.27	0.930
269.63	0.853
270.00	0.757
270.36	0.797
270.72	0.604
271.08	0.531
271.45	0.315
271.81	0.382
272.17	0.655
272.53	0.660
272.90	0.570
273.26	0.771
273.62	0.817
273.98	0.906
274.35	1.022
274.71	1.352
275.07	1.502
275.43	1.476
275.80	1.494
276.16	1.115
276.52	1.106
276.88	0.933
277.25	0.604
277.61	0.596
277.97	0.524
278.33	0.536
278.69	0.454
279.06	0.517
279.42	0.457
279.78	0.585
280.14	0.924
280.50	0.983
280.87	1.108
281.23	1.202
281.59	1.184
281.95	1.228
282.31	1.220
282.68	1.069
283.04	1.128
283.40	1.218
283.76	1.003
284.12	0.888
284.48	0.794
284.85	0.741
285.21	0.784
285.57	0.749
285.93	0.777
286.29	0.722
286.65	0.778
287.02	0.654
287.38	0.612
287.74	0.671
288.10	0.604
288.46	0.684
288.82	0.920
289.18	0.908
289.54	1.054
289.91	1.045
290.27	0.884
290.63	0.936
290.99	1.167
291.35	1.212
291.71	1.153
292.07	1.451
292.43	1.423
292.79	1.199
293.16	1.161
293.52	0.953
293.88	0.937
294.24	1.290
294.60	1.282
294.96	1.186
295.32	1.296
295.68	1.334
296.04	1.178
296.40	1.202
296.76	1.315
297.12	1.409
297.49	1.531
297.85	1.660
298.21	1.529
298.57	1.616
298.93	1.793
299.29	2.035
299.65	2.253
300.01	2.433
300.37	2.628
300.73	2.587
301.09	2.574
301.45	2.585
301.81	2.663
302.17	2.691
302.53	2.741
302.89	2.776
303.25	2.468
303.61	2.301
303.97	2.206
304.33	2.028
304.69	2.212
305.05	2.195
305.41	2.168
305.77	2.074
306.13	2.136
306.49	2.062
306.85	1.945
307.21	2.066
307.57	2.227
307.93	2.280
308.29	2.278
308.65	2.295
309.01	2.364
309.37	2.567
309.73	2.573
310.09	2.574
310.45	2.641
310.81	2.619
311.17	2.562
311.53	2.518
311.89	2.494
312.25	2.608
312.61	2.510
312.96	2.524
313.32	2.400
313.68	2.380
314.04	2.345
314.40	2.294
314.76	2.450
315.12	2.533
315.48	2.511
315.84	2.621
316.20	2.572
316.56	2.663
316.92	2.721
317.27	2.672
317.63	2.685
317.99	2.722
318.35	2.690
318.71	2.665
319.07	2.789
319.43	2.787
319.79	2.739
320.15	2.692
320.50	2.673
320.86	2.654
321.22	2.678
321.58	2.621
321.94	2.489
322.30	2.502
322.66	2.473
323.01	2.335
323.37	2.315
323.73	2.236
324.09	2.254
324.45	2.222
324.81	2.184
325.17	2.196
325.52	2.174
325.88	2.209
326.24	2.172
326.60	2.097
326.96	2.060
327.31	1.995
327.67	2.052
328.03	2.098
328.39	2.108
328.75	2.067
329.11	2.093
329.46	2.262
329.82	2.354
330.18	2.401
330.54	2.418
330.90	2.431
331.25	2.430
331.61	2.385
331.97	2.319
332.33	2.296
332.68	2.220
333.04	2.137
333.40	2.083
333.76	2.011
334.11	1.957
334.47	1.944
334.83	1.909
335.19	1.909
335.54	1.960
335.90	1.997
336.26	1.960
336.62	2.024
336.97	2.009
337.33	1.908
337.69	1.926
338.05	1.961
338.40	1.927
338.76	1.923
339.12	1.958
339.48	1.831
339.83	1.719
340.19	1.687
340.55	1.706
340.90	1.727
341.26	1.713
341.62	1.664
341.97	1.643
342.33	1.658
342.69	1.672
343.04	1.540
343.40	1.506
343.76	1.602
344.12	1.594
344.47	1.578
344.83	1.531
345.19	1.598
345.54	1.587
345.90	1.632
346.26	1.664
346.61	1.588
346.97	1.668
347.32	1.788
347.68	1.784
348.04	1.859
348.39	1.770
348.75	1.729
349.11	1.669
349.46	1.632
349.82	1.581
350.18	1.515
350.53	1.489
350.89	1.468
351.24	1.390
351.60	1.289
351.96	1.165
352.31	1.252
352.67	1.285
353.02	1.258
353.38	1.255
353.74	1.314
354.09	1.235
354.45	1.327
354.80	1.303
355.16	1.366
355.52	1.403
355.87	1.441
356.23	1.360
356.58	1.396
356.94	1.430
357.29	1.436
357.65	1.378
358.00	1.481
358.36	1.441
358.72	1.480
359.07	1.419
359.43	1.388
359.78	1.371
360.14	1.340
360.49	1.258
360.85	1.219
361.20	1.186
361.56	1.159
361.91	1.087
362.27	1.055
362.62	0.986
362.98	0.964
363.33	0.948
363.69	0.943
364.04	0.939
364.40	0.917
364.75	0.933
365.11	0.935
365.46	0.912
365.82	0.853
366.17	0.871
366.53	0.917
366.88	0.899
367.24	0.840
367.59	0.808
367.95	0.788
368.30	0.793
368.66	0.760
369.01	0.755
369.37	0.795
369.72	0.869
370.08	0.843
370.43	0.831
370.78	0.838
371.14	0.913
371.49	0.917
371.85	0.917
372.20	0.937
372.56	0.955
372.91	0.908
373.26	0.855
373.62	0.851
373.97	0.850
374.33	0.823
374.68	0.768
375.03	0.727
375.39	0.720
375.74	0.736
376.10	0.737
376.45	0.713
376.80	0.725
377.16	0.697
377.51	0.681
377.87	0.671
378.22	0.695
378.57	0.711
378.93	0.761
379.28	0.800
379.63	0.836
379.99	0.851
380.34	0.844
380.70	0.899
381.05	0.924
381.40	0.969
381.76	1.023
382.11	1.023
382.46	1.093
382.82	1.086
383.17	1.128
383.52	1.120
383.88	1.138
384.23	1.143
384.58	1.141
384.94	1.131
385.29	1.069
385.64	0.994
385.99	0.969
386.35	0.909
386.70	0.870
387.05	0.846
387.41	0.822
387.76	0.820
388.11	0.846
388.47	0.837
388.82	0.842
389.17	0.869
389.52	0.922
389.88	0.933
390.23	0.985
390.58	1.024
390.93	1.029
391.29	1.030
391.64	1.003
391.99	0.989
392.34	0.990
392.70	1.016
393.05	0.984
393.40	0.985
393.75	0.977
394.11	0.946
394.46	0.855
394.81	0.798
395.16	0.775
395.52	0.722
395.87	0.681
396.22	0.599
396.57	0.546
396.92	0.499
397.28	0.464
397.63	0.392
397.98	0.341
398.33	0.355
398.68	0.349
399.04	0.331
399.39	0.312
399.74	0.269
400.09	0.255
400.44	0.222
400.80	0.248
401.15	0.198
401.50	0.224
401.85	0.214
402.20	0.222
402.55	0.208
402.90	0.199
403.26	0.200
403.61	0.225
403.96	0.268
404.31	0.292
404.66	0.268
405.01	0.262
405.36	0.231
405.72	0.225
406.07	0.184
406.42	0.173
406.77	0.166
407.12	0.153
407.47	0.127
407.82	0.065
408.17	0.043
408.53	0.038
408.88	0.028
409.23	0.004
409.58	-0.035
409.93	-0.046
410.28	-0.072
410.63	-0.124
410.98	-0.125
411.33	-0.132
411.68	-0.125
412.03	-0.130
412.38	-0.106
412.73	-0.057
413.09	-0.011
413.44	0.043
413.79	0.108
414.14	0.158
414.49	0.221
414.84	0.263
415.19	0.314
415.54	0.385
415.89	0.450
416.24	0.477
416.59	0.501
416.94	0.549
417.29	0.588
417.64	0.623
417.99	0.656
418.34	0.681
418.69	0.713
419.04	0.738
419.39	0.744
419.74	0.758
420.09	0.782
420.44	0.799
420.79	0.810
421.14	0.809
421.49	0.801
421.84	0.787
422.19	0.784
422.54	0.770
422.89	0.764
423.24	0.754
423.59	0.724
423.94	0.690
424.29	0.659
424.64	0.615
424.99	0.589
425.34	0.538
425.68	0.504
426.03	0.479
426.38	0.445
426.73	0.380
427.08	0.348
427.43	0.319
427.78	0.324
428.13	0.331
428.48	0.351
428.83	0.346
429.18	0.383
429.53	0.391
429.87	0.383
430.22	0.382
430.57	0.415
430.92	0.418
431.27	0.426
431.62	0.438
431.97	0.416
432.32	0.399
432.67	0.368
433.01	0.342
433.36	0.323
433.71	0.320
434.06	0.293
434.41	0.285
434.76	0.272
435.11	0.273
435.45	0.265
435.80	0.296
436.15	0.325
436.50	0.360
436.85	0.392
437.20	0.428
437.54	0.445
437.89	0.491
438.24	0.498
438.59	0.506
438.94	0.506
439.29	0.504
439.63	0.474
439.98	0.453
440.33	0.462
440.68	0.451
441.03	0.440
441.37	0.436
441.72	0.451
442.07	0.464
442.42	0.483
442.76	0.505
443.11	0.528
443.46	0.555
443.81	0.581
444.16	0.585
444.50	0.592
444.85	0.584
445.20	0.585
445.55	0.552
445.89	0.518
446.24	0.479
446.59	0.449
446.94	0.390
447.28	0.337
447.63	0.268
447.98	0.206
448.32	0.154
448.67	0.116
449.02	0.070
449.37	0.042
449.71	0.036
450.06	0.028
450.41	0.013
450.75	0.036
451.10	0.070
451.45	0.067
451.79	0.060
452.14	0.051
452.49	0.037
452.84	0.050
453.18	0.034
453.53	0.017
453.88	0.034
454.22	0.030
454.57	0.030
454.92	0.037
455.26	0.065
455.61	0.133
455.95	0.179
456.30	0.238
456.65	0.257
456.99	0.299
457.34	0.333
457.69	0.357
458.03	0.385
458.38	0.395
458.73	0.371
459.07	0.379
459.42	0.332
459.76	0.296
460.11	0.246
460.46	0.193
460.80	0.150
461.15	0.090
461.49	0.038
461.84	-0.002
462.19	-0.055
462.53	-0.045
462.88	-0.073
463.22	-0.079
463.57	-0.058
463.91	-0.054
464.26	-0.032
464.61	-0.023
464.95	-0.012
465.30	-0.002
465.64	-0.011
465.99	0.004
466.33	-0.029
466.68	-0.057
467.02	-0.061
467.37	-0.098
467.71	-0.115
468.06	-0.110
468.41	-0.124
468.75	-0.127
469.10	-0.157
469.44	-0.170
469.79	-0.195
470.13	-0.216
470.48	-0.223
470.82	-0.233
471.17	-0.244
471.51	-0.239
471.86	-0.272
472.20	-0.305
472.55	-0.332
472.89	-0.358
473.23	-0.379
473.58	-0.409
473.92	-0.392
474.27	-0.387
474.61	-0.389
474.96	-0.389
475.30	-0.404
475.65	-0.394
475.99	-0.377
476.34	-0.364
476.68	-0.336
477.02	-0.319
477.37	-0.290
477.71	-0.262
478.06	-0.206
478.40	-0.133
478.75	-0.020
479.09	0.095
479.43	0.219
479.78	0.331
480.12	0.435
480.47	0.528
480.81	0.619
481.15	0.702
481.50	0.769
481.84	0.826
482.19	0.894
482.53	0.937
482.87	0.975
483.22	0.976
483.56	0.972
483.90	0.956
484.25	0.925
484.59	0.884
484.94	0.848
485.28	0.810
485.62	0.768
485.97	0.708
486.31	0.659
486.65	0.610
487.00	0.579
487.34	0.546
487.68	0.517
488.03	0.499
488.37	0.476
488.71	0.451
489.06	0.434
489.40	0.411
489.74	0.384
490.09	0.352
490.43	0.316
490.77	0.284
491.11	0.241
491.46	0.191
491.80	0.136
492.14	0.087
492.49	0.020
492.83	-0.055
493.17	-0.125
493.51	-0.185
493.86	-0.242
494.20	-0.290
494.54	-0.318
494.88	-0.332
495.23	-0.332
495.57	-0.333
495.91	-0.321
496.25	-0.326
496.60	-0.340
496.94	-0.332
497.28	-0.350
497.62	-0.364
497.97	-0.393
498.31	-0.434
498.65	-0.443
498.99	-0.462
499.33	-0.478
499.68	-0.516
500.02	-0.508
500.36	-0.496
500.70	-0.525
501.04	-0.529
501.39	-0.534
501.73	-0.516
502.07	-0.490
502.41	-0.494
502.75	-0.502
503.09	-0.495
503.44	-0.475
503.78	-0.476
504.12	-0.460
504.46	-0.429
504.80	-0.402
505.14	-0.388
505.49	-0.354
505.83	-0.347
506.17	-0.342
506.51	-0.311
506.85	-0.300
507.19	-0.288
507.53	-0.278
507.87	-0.269
508.22	-0.287
508.56	-0.300
508.90	-0.295
509.24	-0.318
509.58	-0.321
509.92	-0.331
510.26	-0.354
510.60	-0.361
510.94	-0.389
511.28	-0.398
511.63	-0.405
511.97	-0.398
512.31	-0.406
512.65	-0.411
512.99	-0.390
513.33	-0.372
513.67	-0.332
514.01	-0.305
514.35	-0.263
514.69	-0.195
515.03	-0.143
515.37	-0.109
515.71	-0.058
516.05	-0.007
516.39	0.033
516.73	0.047
517.07	0.060
517.41	0.057
517.75	0.068
518.09	0.045
518.43	0.013
518.77	-0.009
519.11	-0.047
519.45	-0.091
519.79	-0.118
520.13	-0.152
520.47	-0.178
520.81	-0.193
521.15	-0.180
521.49	-0.189
521.83	-0.168
522.17	-0.142
522.51	-0.096
522.85	-0.030
523.19	0.054
523.53	0.128
523.87	0.230
524.21	0.327
524.55	0.409
524.89	0.475
525.23	0.556
525.57	0.613
525.91	0.670
526.25	0.711
526.58	0.745
526.92	0.769
527.26	0.786
527.60	0.779
527.94	0.771
528.28	0.756
528.62	0.748
528.96	0.730
529.30	0.704
529.64	0.673
529.97	0.643
530.31	0.611
530.65	0.579
530.99	0.563
531.33	0.550
531.67	0.541
532.01	0.534
532.35	0.516
532.68	0.495
533.02	0.487
533.36	0.472
533.70	0.445
534.04	0.428
534.38	0.409
534.71	0.376
535.05	0.344
535.39	0.323
535.73	0.302
536.07	0.295
536.41	0.314
536.74	0.332
537.08	0.350
537.42	0.388
537.76	0.429
538.10	0.468
538.43	0.502
538.77	0.548
539.11	0.582
539.45	0.612
539.79	0.626
540.12	0.636
540.46	0.654
540.80	0.651
541.14	0.651
541.47	0.637
541.81	0.615
542.15	0.595
542.49	0.564
542.82	0.525
543.16	0.498
543.50	0.468
543.84	0.427
544.17	0.393
544.51	0.369
544.85	0.339
545.18	0.313
545.52	0.292
545.86	0.264
546.20	0.237
546.53	0.198
546.87	0.153
547.21	0.098
547.54	0.061
547.88	0.027
548.22	0.001
548.55	-0.017
548.89	-0.030
549.23	-0.049
549.56	-0.037
549.90	-0.042
550.24	-0.022
550.57	-0.006
550.91	0.009
551.25	0.026
551.58	0.016
551.92	0.017
552.26	0.002
552.59	-0.016
552.93	-0.030
553.27	-0.059
553.60	-0.077
553.94	-0.086
554.27	-0.108
554.61	-0.101
554.95	-0.101
555.28	-0.099
555.62	-0.080
555.95	-0.076
556.29	-0.079
556.63	-0.045
556.96	-0.052
557.30	-0.035
557.63	-0.059
557.97	-0.037
558.31	-0.039
558.64	-0.044
558.98	-0.049
559.31	-0.047
559.65	-0.036
559.98	-0.013
560.32	-0.007
560.65	0.026
560.99	0.033
561.33	0.064
561.66	0.083
562.00	0.109
562.33	0.128
562.67	0.146
563.00	0.154
563.34	0.181
563.67	0.182
564.01	0.195
564.34	0.206
564.68	0.230
565.01	0.248
565.35	0.238
565.68	0.228
566.02	0.216
566.35	0.240
566.69	0.260
567.02	0.258
567.36	0.276
567.69	0.287
568.03	0.321
568.36	0.324
568.69	0.340
569.03	0.348
569.36	0.365
569.70	0.391
570.03	0.393
570.37	0.388
570.70	0.415
571.04	0.426
571.37	0.412
571.70	0.393
572.04	0.391
572.37	0.405
572.71	0.397
573.04	0.412
573.37	0.409
573.71	0.394
574.04	0.384
574.38	0.346
574.71	0.344
575.04	0.341
575.38	0.339
575.71	0.308
576.05	0.258
576.38	0.228
576.71	0.199
577.05	0.176
577.38	0.176
577.71	0.155
578.05	0.149
578.38	0.113
578.71	0.079
579.05	0.048
579.38	0.072
579.71	0.058
580.05	0.083
580.38	0.060
580.71	0.053
581.05	0.046
581.38	0.067
581.71	0.052
582.05	0.053
582.38	0.075
582.71	0.087
583.04	0.084
583.38	0.113
583.71	0.133
584.04	0.183
584.38	0.207
584.71	0.196
585.04	0.206
585.37	0.263
585.71	0.280
586.04	0.302
586.37	0.318
586.70	0.327
587.04	0.352
587.37	0.368
587.70	0.369
588.03	0.365
588.37	0.378
588.70	0.380
589.03	0.389
589.36	0.391
589.69	0.380
590.03	0.399
590.36	0.416
590.69	0.394
591.02	0.393
591.35	0.382
591.69	0.379
592.02	0.398
592.35	0.398
592.68	0.392
593.01	0.401
593.35	0.432
593.68	0.434
594.01	0.438
594.34	0.451
594.67	0.472
595.00	0.477
595.34	0.493
595.67	0.489
596.00	0.487
596.33	0.462
596.66	0.445
596.99	0.403
597.32	0.380
597.65	0.347
597.99	0.320
598.32	0.284
598.65	0.256
598.98	0.261
599.31	0.251
599.64	0.260
599.97	0.279
600.30	0.304
600.63	0.326
600.96	0.344
601.30	0.385
601.63	0.417
601.96	0.427
602.29	0.462
602.62	0.462
602.95	0.450
603.28	0.436
603.61	0.424
603.94	0.421
604.27	0.406
604.60	0.407
604.93	0.368
605.26	0.357
605.59	0.358
605.92	0.334
606.25	0.321
606.58	0.328
606.91	0.373
607.24	0.379
607.57	0.393
607.90	0.398
608.23	0.386
608.56	0.430
608.89	0.411
609.22	0.393
609.55	0.374
609.88	0.356
610.21	0.348
610.54	0.289
610.87	0.252
611.20	0.208
611.53	0.201
611.86	0.195
612.19	0.118
612.52	0.106
612.85	0.111
613.18	0.098
613.51	0.084
613.84	0.085
614.17	0.086
614.49	0.098
614.82	0.115
615.15	0.088
615.48	0.034
615.81	0.023
616.14	-0.002
616.47	-0.047
616.80	-0.048
617.13	-0.041
617.46	-0.037
617.78	-0.039
618.11	-0.053
618.44	-0.087
618.77	-0.070
619.10	-0.034
619.43	-0.009
619.76	0.037
620.09	0.069
620.41	0.067
620.74	0.067
621.07	0.055
621.40	0.057
621.73	0.082
622.06	0.111
622.38	0.141
622.71	0.157
623.04	0.181
623.37	0.166
623.70	0.170
624.02	0.226
624.35	0.233
624.68	0.259
625.01	0.251
625.34	0.236
625.66	0.235
625.99	0.206
626.32	0.195
626.65	0.185
626.98	0.203
627.30	0.192
627.63	0.133
627.96	0.090
628.29	0.054
628.61	0.069
628.94	0.058
629.27	0.047
629.60	0.056
629.92	0.040
630.25	0.023
630.58	-0.027
630.91	-0.038
631.23	-0.030
631.56	0.015
631.89	0.026
632.21	0.022
632.54	0.048
632.87	0.054
633.19	0.066
633.52	0.070
633.85	0.069
634.18	0.079
634.50	0.099
634.83	0.089
635.16	0.047
635.48	0.024
635.81	-0.019
636.14	-0.086
636.46	-0.127
636.79	-0.177
637.11	-0.195
637.44	-0.233
637.77	-0.243
638.09	-0.295
638.42	-0.336
638.75	-0.360
639.07	-0.352
639.40	-0.351
639.73	-0.352
640.05	-0.368
640.38	-0.405
640.70	-0.445
641.03	-0.459
641.36	-0.437
641.68	-0.434
642.01	-0.396
642.33	-0.400
642.66	-0.424
642.98	-0.463
643.31	-0.464
643.64	-0.468
643.96	-0.424
644.29	-0.428
644.61	-0.402
644.94	-0.417
645.26	-0.410
645.59	-0.423
645.91	-0.386
646.24	-0.353
646.56	-0.297
646.89	-0.285
647.22	-0.252
647.54	-0.265
647.87	-0.248
648.19	-0.266
648.52	-0.280
648.84	-0.314
649.17	-0.315
649.49	-0.358
649.82	-0.387
650.14	-0.445
650.47	-0.496
650.79	-0.576
651.11	-0.599
651.44	-0.608
651.76	-0.645
652.09	-0.685
