OOIBase32 Version 2.0.0.6 Data File
++++++++++++++++++++++++++++++++++++
Date: 01-20-2012, 22:13:32
User: Valued Ocean Optics Customer
Spectrometer Serial Number: USB2E2917
Spectrometer Channel: Master
Integration Time (msec): 4
Spectra Averaged: 10
Boxcar Smoothing: 5
Correct for Electrical Dark: Enabled
Time Normalized: Disabled
Dual-beam Reference: Disabled
Reference Channel: Master
Temperature: Not acquired
Spectrometer Type: S2000
ADC Type: USB2000
Number of Pixels in File: 2048
Graph Title: 
>>>>>Begin Spectral Data<<<<<
180.30	0.000
180.67	0.000
181.03	-84.947
181.40	115.492
181.77	191.699
182.14	-2050.400
182.51	-11.464
182.88	-397.308
183.25	34.063
183.62	89.795
183.99	-633.464
184.36	112.376
184.73	34.460
185.10	-48.179
185.46	49.266
185.83	-398.635
186.20	106.599
186.57	139.243
186.94	-33.339
187.31	-73.358
187.68	143.149
188.05	137.798
188.42	115.804
188.78	102.249
189.15	69.625
189.52	52.158
189.89	33.380
190.26	32.235
190.63	35.167
191.00	37.753
191.37	30.699
191.73	35.352
192.10	35.501
192.47	34.335
192.84	25.619
193.21	39.424
193.58	39.353
193.94	48.548
194.31	51.765
194.68	47.505
195.05	35.174
195.42	39.585
195.79	33.978
196.15	31.022
196.52	32.965
196.89	40.905
197.26	29.162
197.63	22.885
198.00	16.049
198.36	13.859
198.73	13.754
199.10	22.710
199.47	11.249
199.84	7.530
200.20	9.591
200.57	1.462
200.94	0.902
201.31	11.356
201.68	13.016
202.04	18.802
202.41	16.928
202.78	18.372
203.15	14.458
203.51	22.527
203.88	22.912
204.25	25.469
204.62	32.530
204.98	34.286
205.35	24.096
205.72	30.107
206.09	18.245
206.46	15.538
206.82	10.120
207.19	-1.625
207.56	2.652
207.92	-7.787
208.29	-20.173
208.66	-18.483
209.03	-23.627
209.39	-22.232
209.76	-35.202
210.13	-22.587
210.50	-13.148
210.86	-1.089
211.23	4.418
211.60	4.525
211.96	13.945
212.33	16.342
212.70	10.621
213.07	16.013
213.43	21.291
213.80	26.634
214.17	27.499
214.53	27.605
214.90	20.646
215.27	22.615
215.63	25.388
216.00	25.713
216.37	20.615
216.74	21.525
217.10	19.880
217.47	8.847
217.84	7.490
218.20	8.857
218.57	6.319
218.94	18.533
219.30	13.156
219.67	16.355
220.04	14.844
220.40	18.728
220.77	22.292
221.13	22.815
221.50	28.140
221.87	29.711
222.23	25.999
222.60	25.433
222.97	21.877
223.33	23.560
223.70	19.671
224.07	19.917
224.43	18.607
224.80	17.273
225.16	15.248
225.53	14.767
225.90	14.189
226.26	14.960
226.63	14.501
226.99	14.059
227.36	14.003
227.73	14.565
228.09	14.157
228.46	14.184
228.82	13.788
229.19	14.056
229.56	13.912
229.92	13.799
230.29	12.755
230.65	12.964
231.02	13.195
231.38	12.885
231.75	11.327
232.12	11.096
232.48	11.387
232.85	11.558
233.21	11.356
233.58	11.476
233.94	11.075
234.31	11.223
234.68	10.705
235.04	10.237
235.41	9.428
235.77	10.168
236.14	10.572
236.50	10.765
236.87	11.430
237.23	11.826
237.60	12.514
237.96	12.332
238.33	12.691
238.69	12.591
239.06	12.285
239.42	12.472
239.79	12.463
240.15	12.387
240.52	12.068
240.88	12.103
241.25	12.058
241.61	11.579
241.98	11.640
242.34	11.510
242.71	11.521
243.07	11.826
243.44	11.868
243.80	11.895
244.17	11.960
244.53	12.012
244.90	11.897
245.26	11.876
245.63	12.003
245.99	12.152
246.36	12.191
246.72	12.343
247.09	12.370
247.45	12.470
247.81	12.328
248.18	12.111
248.54	12.035
248.91	11.986
249.27	12.095
249.64	11.809
250.00	11.653
250.36	11.576
250.73	11.034
251.09	10.521
251.46	10.153
251.82	10.124
252.19	9.945
252.55	9.726
252.91	9.487
253.28	9.277
253.64	9.516
254.01	9.681
254.37	9.621
254.73	10.086
255.10	10.277
255.46	10.233
255.83	10.638
256.19	10.821
256.55	10.849
256.92	10.935
257.28	10.819
257.65	10.644
258.01	10.591
258.37	10.682
258.74	10.671
259.10	10.696
259.46	10.767
259.83	10.560
260.19	10.588
260.55	10.530
260.92	10.475
261.28	10.683
261.64	10.850
262.01	10.784
262.37	10.649
262.73	10.690
263.10	10.639
263.46	10.660
263.82	10.643
264.19	10.714
264.55	10.736
264.91	10.634
265.28	10.381
265.64	10.285
266.00	10.422
266.37	10.459
266.73	10.148
267.09	10.135
267.46	10.090
267.82	10.227
268.18	10.044
268.54	10.037
268.91	10.075
269.27	10.169
269.63	10.209
270.00	10.024
270.36	10.176
270.72	10.317
271.08	10.349
271.45	10.353
271.81	10.144
272.17	10.245
272.53	10.337
272.90	10.222
273.26	10.146
273.62	10.199
273.98	10.190
274.35	9.899
274.71	9.760
275.07	9.681
275.43	9.636
275.80	9.846
276.16	9.677
276.52	9.573
276.88	9.637
277.25	9.688
277.61	9.573
277.97	9.634
278.33	9.600
278.69	9.704
279.06	9.596
279.42	9.434
279.78	9.188
280.14	9.238
280.50	9.256
280.87	9.363
281.23	9.266
281.59	9.240
281.95	9.208
282.31	9.340
282.68	9.326
283.04	9.358
283.40	9.308
283.76	9.311
284.12	9.316
284.48	9.321
284.85	9.252
285.21	9.241
285.57	9.344
285.93	9.389
286.29	9.252
286.65	9.347
287.02	9.404
287.38	9.571
287.74	9.670
288.10	9.748
288.46	9.734
288.82	9.737
289.18	9.726
289.54	9.706
289.91	9.473
290.27	9.543
290.63	9.461
290.99	9.547
291.35	9.507
291.71	9.609
292.07	9.621
292.43	9.476
292.79	9.653
293.16	9.795
293.52	9.960
293.88	10.382
294.24	10.458
294.60	10.525
294.96	10.647
295.32	10.784
295.68	10.872
296.04	10.987
296.40	11.207
296.76	11.357
297.12	11.487
297.49	11.591
297.85	11.559
298.21	11.666
298.57	11.867
298.93	11.788
299.29	11.894
299.65	12.049
300.01	12.148
300.37	12.348
300.73	12.355
301.09	12.506
301.45	12.607
301.81	12.833
302.17	12.976
302.53	13.047
302.89	13.160
303.25	13.296
303.61	13.372
303.97	13.414
304.33	13.563
304.69	13.621
305.05	13.767
305.41	13.849
305.77	13.868
306.13	14.016
306.49	14.015
306.85	14.186
307.21	14.219
307.57	14.321
307.93	14.439
308.29	14.325
308.65	14.339
309.01	14.331
309.37	14.309
309.73	14.348
310.09	14.389
310.45	14.444
310.81	14.377
311.17	14.414
311.53	14.360
311.89	14.335
312.25	14.433
312.61	14.533
312.96	14.523
313.32	14.506
313.68	14.542
314.04	14.565
314.40	14.554
314.76	14.765
315.12	14.800
315.48	14.847
315.84	14.939
316.20	15.068
316.56	14.981
316.92	15.080
317.27	15.150
317.63	15.159
317.99	15.226
318.35	15.322
318.71	15.276
319.07	15.226
319.43	15.188
319.79	15.100
320.15	14.999
320.50	15.070
320.86	14.918
321.22	14.906
321.58	14.797
321.94	14.656
322.30	14.627
322.66	14.733
323.01	14.629
323.37	14.625
323.73	14.566
324.09	14.562
324.45	14.630
324.81	14.640
325.17	14.609
325.52	14.624
325.88	14.611
326.24	14.469
326.60	14.348
326.96	14.421
327.31	14.448
327.67	14.458
328.03	14.395
328.39	14.327
328.75	14.313
329.11	14.313
329.46	14.314
329.82	14.376
330.18	14.473
330.54	14.407
330.90	14.392
331.25	14.391
331.61	14.412
331.97	14.453
332.33	14.443
332.68	14.481
333.04	14.389
333.40	14.393
333.76	14.317
334.11	14.244
334.47	14.239
334.83	14.263
335.19	14.217
335.54	14.176
335.90	14.131
336.26	14.143
336.62	14.072
336.97	14.153
337.33	14.122
337.69	14.084
338.05	14.123
338.40	14.118
338.76	14.066
339.12	14.019
339.48	14.016
339.83	13.920
340.19	13.840
340.55	13.803
340.90	13.758
341.26	13.681
341.62	13.746
341.97	13.773
342.33	13.731
342.69	13.752
343.04	13.723
343.40	13.735
343.76	13.690
344.12	13.628
344.47	13.650
344.83	13.607
345.19	13.638
345.54	13.590
345.90	13.636
346.26	13.611
346.61	13.554
346.97	13.561
347.32	13.485
347.68	13.517
348.04	13.507
348.39	13.475
348.75	13.481
349.11	13.513
349.46	13.442
349.82	13.304
350.18	13.331
350.53	13.401
350.89	13.418
351.24	13.457
351.60	13.509
351.96	13.555
352.31	13.522
352.67	13.563
353.02	13.496
353.38	13.417
353.74	13.412
354.09	13.325
354.45	13.220
354.80	13.104
355.16	13.052
355.52	12.923
355.87	12.819
356.23	12.757
356.58	12.628
356.94	12.515
357.29	12.574
357.65	12.597
358.00	12.588
358.36	12.563
358.72	12.596
359.07	12.562
359.43	12.632
359.78	12.618
360.14	12.565
360.49	12.571
360.85	12.623
361.20	12.540
361.56	12.466
361.91	12.436
362.27	12.365
362.62	12.356
362.98	12.351
363.33	12.299
363.69	12.320
364.04	12.334
364.40	12.329
364.75	12.311
365.11	12.304
365.46	12.321
365.82	12.297
366.17	12.293
366.53	12.229
366.88	12.201
367.24	12.162
367.59	12.147
367.95	12.207
368.30	12.202
368.66	12.203
369.01	12.213
369.37	12.195
369.72	12.180
370.08	12.183
370.43	12.163
370.78	12.135
371.14	12.143
371.49	12.080
371.85	11.966
372.20	11.934
372.56	11.894
372.91	11.854
373.26	11.761
373.62	11.774
373.97	11.789
374.33	11.786
374.68	11.777
375.03	11.759
375.39	11.757
375.74	11.761
376.10	11.688
376.45	11.704
376.80	11.727
377.16	11.734
377.51	11.679
377.87	11.667
378.22	11.680
378.57	11.705
378.93	11.683
379.28	11.694
379.63	11.696
379.99	11.734
380.34	11.688
380.70	11.641
381.05	11.619
381.40	11.588
381.76	11.544
382.11	11.483
382.46	11.366
382.82	11.362
383.17	11.306
383.52	11.340
383.88	11.339
384.23	11.359
384.58	11.376
384.94	11.404
385.29	11.406
385.64	11.412
385.99	11.369
386.35	11.390
386.70	11.333
387.05	11.334
387.41	11.238
387.76	11.159
388.11	11.129
388.47	11.064
388.82	11.022
389.17	11.024
389.52	10.968
389.88	10.979
390.23	10.979
390.58	10.981
390.93	10.976
391.29	10.991
391.64	10.982
391.99	10.946
392.34	10.951
392.70	10.908
393.05	10.887
393.40	10.883
393.75	10.876
394.11	10.876
394.46	10.872
394.81	10.842
395.16	10.809
395.52	10.820
395.87	10.830
396.22	10.796
396.57	10.807
396.92	10.794
397.28	10.781
397.63	10.752
397.98	10.713
398.33	10.690
398.68	10.665
399.04	10.663
399.39	10.634
399.74	10.590
400.09	10.595
400.44	10.587
400.80	10.569
401.15	10.566
401.50	10.545
401.85	10.512
402.20	10.484
402.55	10.469
402.90	10.462
403.26	10.450
403.61	10.407
403.96	10.375
404.31	10.335
404.66	10.312
405.01	10.279
405.36	10.264
405.72	10.268
406.07	10.277
406.42	10.252
406.77	10.203
407.12	10.152
407.47	10.183
407.82	10.179
408.17	10.166
408.53	10.167
408.88	10.161
409.23	10.151
409.58	10.138
409.93	10.100
410.28	10.087
410.63	10.100
410.98	10.103
411.33	10.084
411.68	10.058
412.03	10.008
412.38	9.970
412.73	9.946
413.09	9.919
413.44	9.907
413.79	9.885
414.14	9.873
414.49	9.857
414.84	9.857
415.19	9.830
415.54	9.816
415.89	9.815
416.24	9.801
416.59	9.790
416.94	9.773
417.29	9.754
417.64	9.742
417.99	9.730
418.34	9.706
418.69	9.681
419.04	9.669
419.39	9.659
419.74	9.659
420.09	9.624
420.44	9.604
420.79	9.593
421.14	9.566
421.49	9.543
421.84	9.522
422.19	9.518
422.54	9.520
422.89	9.508
423.24	9.495
423.59	9.489
423.94	9.508
424.29	9.509
424.64	9.516
424.99	9.539
425.34	9.542
425.68	9.549
426.03	9.552
426.38	9.561
426.73	9.577
427.08	9.594
427.43	9.596
427.78	9.607
428.13	9.615
428.48	9.622
428.83	9.608
429.18	9.611
429.53	9.617
429.87	9.614
430.22	9.601
430.57	9.591
430.92	9.568
431.27	9.551
431.62	9.540
431.97	9.534
432.32	9.507
432.67	9.505
433.01	9.513
433.36	9.510
433.71	9.511
434.06	9.528
434.41	9.521
434.76	9.531
435.11	9.548
435.45	9.541
435.80	9.537
436.15	9.546
436.50	9.541
436.85	9.545
437.20	9.541
437.54	9.511
437.89	9.484
438.24	9.468
438.59	9.460
438.94	9.450
439.29	9.442
439.63	9.440
439.98	9.426
440.33	9.411
440.68	9.389
441.03	9.380
441.37	9.416
441.72	9.426
442.07	9.440
442.42	9.446
442.76	9.437
443.11	9.448
443.46	9.443
443.81	9.446
444.16	9.454
444.50	9.459
444.85	9.457
445.20	9.426
445.55	9.402
445.89	9.389
446.24	9.378
446.59	9.356
446.94	9.345
447.28	9.338
447.63	9.324
447.98	9.326
448.32	9.325
448.67	9.316
449.02	9.334
449.37	9.361
449.71	9.370
450.06	9.365
450.41	9.390
450.75	9.404
451.10	9.405
451.45	9.410
451.79	9.401
452.14	9.377
452.49	9.370
452.84	9.367
453.18	9.357
453.53	9.352
453.88	9.359
454.22	9.361
454.57	9.343
454.92	9.351
455.26	9.356
455.61	9.345
455.95	9.363
456.30	9.376
456.65	9.384
456.99	9.364
457.34	9.348
457.69	9.338
458.03	9.328
458.38	9.336
458.73	9.327
459.07	9.320
459.42	9.312
459.76	9.288
460.11	9.278
460.46	9.267
460.80	9.282
461.15	9.288
461.49	9.299
461.84	9.296
462.19	9.284
462.53	9.310
462.88	9.319
463.22	9.332
463.57	9.368
463.91	9.375
464.26	9.378
464.61	9.372
464.95	9.400
465.30	9.391
465.64	9.403
465.99	9.416
466.33	9.404
466.68	9.403
467.02	9.421
467.37	9.413
467.71	9.429
468.06	9.404
468.41	9.412
468.75	9.405
469.10	9.410
469.44	9.393
469.79	9.368
470.13	9.367
470.48	9.374
470.82	9.356
471.17	9.341
471.51	9.305
471.86	9.319
472.20	9.318
472.55	9.308
472.89	9.292
473.23	9.298
473.58	9.284
473.92	9.276
474.27	9.247
474.61	9.233
474.96	9.226
475.30	9.226
475.65	9.235
475.99	9.217
476.34	9.200
476.68	9.197
477.02	9.168
477.37	9.166
477.71	9.149
478.06	9.146
478.40	9.147
478.75	9.207
479.09	9.294
479.43	9.452
479.78	9.675
480.12	9.917
480.47	10.150
480.81	10.405
481.15	10.646
481.50	10.888
481.84	11.170
482.19	11.485
482.53	11.769
482.87	11.977
483.22	12.036
483.56	11.948
483.90	11.771
484.25	11.555
484.59	11.296
484.94	11.012
485.28	10.693
485.62	10.325
485.97	9.933
486.31	9.573
486.65	9.290
487.00	9.091
487.34	8.986
487.68	8.939
488.03	8.929
488.37	8.934
488.71	8.944
489.06	8.982
489.40	9.026
489.74	9.058
490.09	9.090
490.43	9.112
490.77	9.126
491.11	9.141
491.46	9.134
491.80	9.124
492.14	9.107
492.49	9.111
492.83	9.092
493.17	9.069
493.51	9.044
493.86	9.017
494.20	8.992
494.54	8.978
494.88	8.979
495.23	8.995
495.57	8.980
495.91	8.974
496.25	8.947
496.60	8.925
496.94	8.915
497.28	8.925
497.62	8.921
497.97	8.925
498.31	8.928
498.65	8.922
498.99	8.929
499.33	8.931
499.68	8.939
500.02	8.959
500.36	8.959
500.70	8.963
501.04	8.953
501.39	8.928
501.73	8.904
502.07	8.906
502.41	8.898
502.75	8.891
503.09	8.901
503.44	8.887
503.78	8.881
504.12	8.898
504.46	8.898
504.80	8.895
505.14	8.921
505.49	8.927
505.83	8.918
506.17	8.897
506.51	8.892
506.85	8.889
507.19	8.873
507.53	8.851
507.87	8.825
508.22	8.810
508.56	8.807
508.90	8.793
509.24	8.786
509.58	8.776
509.92	8.795
510.26	8.808
510.60	8.795
510.94	8.797
511.28	8.806
511.63	8.821
511.97	8.828
512.31	8.824
512.65	8.809
512.99	8.813
513.33	8.828
513.67	8.807
514.01	8.781
514.35	8.789
514.69	8.801
515.03	8.800
515.37	8.803
515.71	8.796
516.05	8.802
516.39	8.820
516.73	8.810
517.07	8.793
517.41	8.797
517.75	8.777
518.09	8.764
518.43	8.745
518.77	8.731
519.11	8.731
519.45	8.724
519.79	8.716
520.13	8.704
520.47	8.699
520.81	8.695
521.15	8.692
521.49	8.706
521.83	8.707
522.17	8.711
522.51	8.711
522.85	8.685
523.19	8.698
523.53	8.733
523.87	8.781
524.21	8.857
524.55	8.937
524.89	9.008
525.23	9.085
525.57	9.160
525.91	9.242
526.25	9.324
526.58	9.411
526.92	9.469
527.26	9.506
527.60	9.464
527.94	9.349
528.28	9.224
528.62	9.113
528.96	9.026
529.30	8.954
529.64	8.863
529.97	8.764
530.31	8.664
530.65	8.574
530.99	8.495
531.33	8.502
531.67	8.586
532.01	8.670
532.35	8.728
532.68	8.743
533.02	8.731
533.36	8.727
533.70	8.719
534.04	8.711
534.38	8.694
534.71	8.677
535.05	8.661
535.39	8.637
535.73	8.621
536.07	8.622
536.41	8.618
536.74	8.625
537.08	8.647
537.42	8.653
537.76	8.657
538.10	8.677
538.43	8.688
538.77	8.702
539.11	8.716
539.45	8.728
539.79	8.737
540.12	8.743
540.46	8.742
540.80	8.716
541.14	8.707
541.47	8.700
541.81	8.682
542.15	8.665
542.49	8.652
542.82	8.620
543.16	8.601
543.50	8.573
543.84	8.542
544.17	8.511
544.51	8.528
544.85	8.530
545.18	8.518
545.52	8.522
545.86	8.528
546.20	8.520
546.53	8.538
546.87	8.524
547.21	8.538
547.54	8.560
547.88	8.593
548.22	8.587
548.55	8.587
548.89	8.592
549.23	8.603
549.56	8.588
549.90	8.589
550.24	8.580
550.57	8.598
550.91	8.580
551.25	8.568
551.58	8.545
551.92	8.540
552.26	8.536
552.59	8.544
552.93	8.526
553.27	8.535
553.60	8.530
553.94	8.532
554.27	8.516
554.61	8.513
554.95	8.503
555.28	8.514
555.62	8.495
555.95	8.494
556.29	8.488
556.63	8.491
556.96	8.486
557.30	8.479
557.63	8.471
557.97	8.472
558.31	8.481
558.64	8.489
558.98	8.486
559.31	8.490
559.65	8.484
559.98	8.474
560.32	8.475
560.65	8.472
560.99	8.466
561.33	8.464
561.66	8.450
562.00	8.436
562.33	8.467
562.67	8.479
563.00	8.478
563.34	8.471
563.67	8.474
564.01	8.468
564.34	8.470
564.68	8.469
565.01	8.481
565.35	8.491
565.68	8.484
566.02	8.448
566.35	8.429
566.69	8.423
567.02	8.422
567.36	8.421
567.69	8.439
568.03	8.447
568.36	8.456
568.69	8.456
569.03	8.442
569.36	8.439
569.70	8.432
570.03	8.427
570.37	8.422
570.70	8.421
571.04	8.414
571.37	8.387
571.70	8.377
572.04	8.363
572.37	8.339
572.71	8.336
573.04	8.350
573.37	8.352
573.71	8.362
574.04	8.378
574.38	8.375
574.71	8.383
575.04	8.393
575.38	8.373
575.71	8.362
576.05	8.369
576.38	8.384
576.71	8.380
577.05	8.396
577.38	8.408
577.71	8.432
578.05	8.442
578.38	8.433
578.71	8.432
579.05	8.469
579.38	8.492
579.71	8.518
580.05	8.499
580.38	8.520
580.71	8.493
581.05	8.466
581.38	8.444
581.71	8.440
582.05	8.425
582.38	8.406
582.71	8.402
583.04	8.391
583.38	8.340
583.71	8.354
584.04	8.329
584.38	8.357
584.71	8.367
585.04	8.353
585.37	8.365
585.71	8.371
586.04	8.375
586.37	8.332
586.70	8.363
587.04	8.367
587.37	8.375
587.70	8.358
588.03	8.331
588.37	8.303
588.70	8.289
589.03	8.248
589.36	8.251
589.69	8.236
590.03	8.242
590.36	8.209
590.69	8.234
591.02	8.216
591.35	8.219
591.69	8.244
592.02	8.265
592.35	8.275
592.68	8.300
593.01	8.291
593.35	8.291
593.68	8.279
594.01	8.267
594.34	8.237
594.67	8.226
595.00	8.234
595.34	8.219
595.67	8.217
596.00	8.207
596.33	8.199
596.66	8.205
596.99	8.192
597.32	8.211
597.65	8.222
597.99	8.218
598.32	8.207
598.65	8.192
598.98	8.152
599.31	8.132
599.64	8.130
599.97	8.100
600.30	8.093
600.63	8.112
600.96	8.083
601.30	8.068
601.63	8.071
601.96	8.087
602.29	8.082
602.62	8.094
602.95	8.087
603.28	8.056
603.61	8.043
603.94	8.027
604.27	8.004
604.60	8.020
604.93	8.003
605.26	7.994
605.59	7.977
605.92	7.984
606.25	7.992
606.58	7.997
606.91	7.993
607.24	8.035
607.57	8.055
607.90	8.076
608.23	8.045
608.56	8.041
608.89	8.041
609.22	8.030
609.55	7.987
609.88	7.981
610.21	7.948
610.54	7.923
610.87	7.877
611.20	7.831
611.53	7.814
611.86	7.805
612.19	7.796
612.52	7.801
612.85	7.801
613.18	7.796
613.51	7.776
613.84	7.780
614.17	7.814
614.49	7.811
614.82	7.808
615.15	7.781
615.48	7.812
615.81	7.835
616.14	7.836
616.47	7.785
616.80	7.798
617.13	7.778
617.46	7.740
617.78	7.725
618.11	7.753
618.44	7.740
618.77	7.761
619.10	7.716
619.43	7.716
619.76	7.704
620.09	7.719
620.41	7.705
620.74	7.741
621.07	7.778
621.40	7.748
621.73	7.741
622.06	7.769
622.38	7.767
622.71	7.828
623.04	7.787
623.37	7.801
623.70	7.838
624.02	7.821
624.35	7.813
624.68	7.834
625.01	7.864
625.34	7.863
625.66	7.859
625.99	7.820
626.32	7.773
626.65	7.780
626.98	7.754
627.30	7.738
627.63	7.737
627.96	7.725
628.29	7.698
628.61	7.670
628.94	7.645
629.27	7.631
629.60	7.669
629.92	7.666
630.25	7.656
630.58	7.646
630.91	7.654
631.23	7.660
631.56	7.635
631.89	7.612
632.21	7.609
632.54	7.624
632.87	7.635
633.19	7.607
633.52	7.625
633.85	7.622
634.18	7.613
634.50	7.592
634.83	7.579
635.16	7.579
635.48	7.578
635.81	7.551
636.14	7.520
636.46	7.483
636.79	7.470
637.11	7.449
637.44	7.430
637.77	7.426
638.09	7.383
638.42	7.397
638.75	7.395
639.07	7.400
639.40	7.423
639.73	7.432
640.05	7.473
640.38	7.502
640.70	7.473
641.03	7.471
641.36	7.518
641.68	7.535
642.01	7.540
642.33	7.503
642.66	7.493
642.98	7.512
643.31	7.505
643.64	7.501
643.96	7.429
644.29	7.444
644.61	7.461
644.94	7.429
645.26	7.442
645.59	7.420
645.91	7.493
646.24	7.532
646.56	7.567
646.89	7.569
647.22	7.530
647.54	7.597
647.87	7.599
648.19	7.623
648.52	7.625
648.84	7.651
649.17	7.659
