OOIBase32 Version 2.0.0.6 Data File
++++++++++++++++++++++++++++++++++++
Date: 01-20-2012, 22:57:07
User: Valued Ocean Optics Customer
Spectrometer Serial Number: USB2E2917
Spectrometer Channel: Master
Integration Time (msec): 3
Spectra Averaged: 10
Boxcar Smoothing: 5
Correct for Electrical Dark: Enabled
Time Normalized: Disabled
Dual-beam Reference: Disabled
Reference Channel: Master
Temperature: Not acquired
Spectrometer Type: S2000
ADC Type: USB2000
Number of Pixels in File: 2048
Graph Title: 
>>>>>Begin Spectral Data<<<<<
180.30	0.000
180.67	0.000
181.03	-271.500
181.40	107.413
181.77	-112.410
182.14	364.255
182.51	508.668
182.88	-0.653
183.25	328.759
183.62	-44.083
183.99	218.294
184.36	31.805
184.73	45.940
185.10	-83.567
185.46	-20.730
185.83	160.101
186.20	71.829
186.57	-315.627
186.94	-2468.017
187.31	-11.882
187.68	71.742
188.05	-36.131
188.42	-168.479
188.78	-525.071
189.15	-208.647
189.52	-194.230
189.89	-64.837
190.26	-101.430
190.63	-154.210
191.00	-146.450
191.37	-198.024
191.73	-195.947
192.10	-284.963
192.47	-522.636
192.84	-116.262
193.21	-17900.725
193.58	582.271
193.94	353.920
194.31	395.118
194.68	413.837
195.05	665.957
195.42	972.801
195.79	396.418
196.15	272.332
196.52	381.457
196.89	435.556
197.26	3182.857
197.63	-253.992
198.00	-46.401
198.36	-5.144
198.73	-49.986
199.10	-53.893
199.47	-128.368
199.84	-69.123
200.20	-1.632
200.57	12.556
200.94	26.805
201.31	15.614
201.68	22.772
202.04	8.521
202.41	-34.976
202.78	-42.276
203.15	-83.001
203.51	-93.685
203.88	-131.905
204.25	-129.457
204.62	-173.555
204.98	-94.449
205.35	-51.849
205.72	-40.994
206.09	-200.763
206.46	-35.705
206.82	-16.294
207.19	-3.372
207.56	-4.499
207.92	5.637
208.29	0.042
208.66	3.908
209.03	2.459
209.39	-15.784
209.76	-29.544
210.13	-3.902
210.50	-12.575
210.86	6.472
211.23	1.659
211.60	11.456
211.96	19.268
212.33	22.212
212.70	13.576
213.07	-10.824
213.43	-7.242
213.80	-20.732
214.17	-46.783
214.53	-32.762
214.90	-42.726
215.27	-48.963
215.63	-57.763
216.00	-46.008
216.37	-34.986
216.74	-30.962
217.10	-11.585
217.47	-16.144
217.84	-7.444
218.20	4.157
218.57	-3.198
218.94	-3.335
219.30	6.382
219.67	7.212
220.04	-14.716
220.40	-17.575
220.77	-24.721
221.13	-32.631
221.50	-14.847
221.87	-12.610
222.23	-19.985
222.60	-11.586
222.97	-11.621
223.33	-15.591
223.70	-6.790
224.07	0.236
224.43	3.170
224.80	7.264
225.16	8.511
225.53	6.962
225.90	8.295
226.26	9.430
226.63	9.920
226.99	9.120
227.36	8.822
227.73	8.890
228.09	9.025
228.46	8.734
228.82	7.876
229.19	7.955
229.56	7.068
229.92	5.675
230.29	5.817
230.65	6.005
231.02	6.408
231.38	6.836
231.75	5.281
232.12	4.586
232.48	3.988
232.85	4.310
233.21	3.518
233.58	5.639
233.94	7.206
234.31	7.257
234.68	8.293
235.04	8.449
235.41	9.862
235.77	9.891
236.14	11.131
236.50	11.278
236.87	11.795
237.23	13.457
237.60	12.224
237.96	11.186
238.33	10.240
238.69	9.677
239.06	8.538
239.42	7.938
239.79	8.472
240.15	8.124
240.52	8.357
240.88	8.821
241.25	8.092
241.61	8.336
241.98	8.670
242.34	8.967
242.71	8.971
243.07	9.166
243.44	9.314
243.80	9.044
244.17	8.934
244.53	8.782
244.90	8.512
245.26	8.400
245.63	8.145
245.99	8.338
246.36	8.213
246.72	8.138
247.09	8.491
247.45	8.428
247.81	8.587
248.18	8.796
248.54	8.714
248.91	8.884
249.27	9.288
249.64	9.491
250.00	9.266
250.36	9.182
250.73	8.993
251.09	8.756
251.46	8.623
251.82	8.371
252.19	8.038
252.55	8.393
252.91	8.304
253.28	8.350
253.64	8.486
254.01	8.461
254.37	8.518
254.73	8.304
255.10	8.353
255.46	8.529
255.83	8.959
256.19	8.980
256.55	8.712
256.92	8.369
257.28	8.375
257.65	8.337
258.01	8.524
258.37	8.586
258.74	8.593
259.10	8.385
259.46	8.343
259.83	8.076
260.19	7.886
260.55	7.823
260.92	7.888
261.28	7.865
261.64	7.729
262.01	7.508
262.37	7.447
262.73	7.551
263.10	7.750
263.46	7.429
263.82	7.664
264.19	8.147
264.55	8.069
264.91	8.337
265.28	8.315
265.64	8.370
266.00	8.442
266.37	8.350
266.73	8.327
267.09	8.266
267.46	8.547
267.82	8.262
268.18	8.005
268.54	8.284
268.91	8.043
269.27	7.653
269.63	7.662
270.00	7.249
270.36	7.245
270.72	7.430
271.08	7.391
271.45	7.169
271.81	7.152
272.17	7.076
272.53	6.968
272.90	6.847
273.26	6.932
273.62	6.963
273.98	6.936
274.35	6.819
274.71	6.620
275.07	6.799
275.43	7.052
275.80	7.257
276.16	7.422
276.52	7.478
276.88	7.500
277.25	7.331
277.61	7.413
277.97	7.863
278.33	7.836
278.69	7.780
279.06	7.478
279.42	7.376
279.78	7.316
280.14	7.372
280.50	7.204
280.87	7.352
281.23	7.743
281.59	7.870
281.95	7.723
282.31	7.664
282.68	7.680
283.04	7.982
283.40	7.978
283.76	8.142
284.12	8.195
284.48	8.405
284.85	8.353
285.21	8.108
285.57	7.774
285.93	7.868
286.29	8.003
286.65	8.045
287.02	7.854
287.38	8.048
287.74	7.790
288.10	7.731
288.46	7.613
288.82	7.653
289.18	7.830
289.54	8.226
289.91	8.032
290.27	8.145
290.63	8.151
290.99	8.270
291.35	8.184
291.71	8.414
292.07	8.429
292.43	8.349
292.79	8.242
293.16	8.329
293.52	8.362
293.88	8.450
294.24	8.446
294.60	8.506
294.96	8.528
295.32	8.491
295.68	8.533
296.04	8.541
296.40	8.672
296.76	8.786
297.12	8.696
297.49	8.645
297.85	8.680
298.21	8.701
298.57	8.942
298.93	9.110
299.29	9.330
299.65	9.548
300.01	9.788
300.37	9.984
300.73	10.302
301.09	10.687
301.45	10.914
301.81	11.430
302.17	11.843
302.53	11.987
302.89	12.344
303.25	12.539
303.61	12.627
303.97	12.979
304.33	13.288
304.69	13.291
305.05	13.452
305.41	13.620
305.77	13.591
306.13	13.802
306.49	13.885
306.85	13.961
307.21	14.162
307.57	14.473
307.93	14.546
308.29	14.600
308.65	14.817
309.01	14.868
309.37	15.084
309.73	15.120
310.09	15.118
310.45	15.424
310.81	15.527
311.17	15.549
311.53	15.580
311.89	15.725
312.25	15.772
312.61	15.948
312.96	16.206
313.32	16.234
313.68	16.568
314.04	16.826
314.40	16.885
314.76	17.048
315.12	17.263
315.48	17.401
315.84	17.364
316.20	17.474
316.56	17.597
316.92	17.468
317.27	17.412
317.63	17.224
317.99	17.108
318.35	16.857
318.71	16.787
319.07	16.747
319.43	16.625
319.79	16.726
320.15	16.711
320.50	16.559
320.86	16.538
321.22	16.600
321.58	16.659
321.94	16.712
322.30	16.870
322.66	16.832
323.01	16.692
323.37	16.617
323.73	16.411
324.09	16.408
324.45	16.288
324.81	16.400
325.17	16.452
325.52	16.538
325.88	16.508
326.24	16.449
326.60	16.490
326.96	16.561
327.31	16.649
327.67	16.671
328.03	16.669
328.39	16.789
328.75	16.672
329.11	16.509
329.46	16.371
329.82	16.117
330.18	16.012
330.54	15.857
330.90	15.746
331.25	15.543
331.61	15.492
331.97	15.392
332.33	15.373
332.68	15.354
333.04	15.302
333.40	15.216
333.76	15.356
334.11	15.332
334.47	15.295
334.83	15.296
335.19	15.428
335.54	15.357
335.90	15.452
336.26	15.518
336.62	15.491
336.97	15.483
337.33	15.478
337.69	15.391
338.05	15.362
338.40	15.325
338.76	15.361
339.12	15.277
339.48	15.270
339.83	15.159
340.19	14.990
340.55	14.900
340.90	14.949
341.26	14.988
341.62	14.955
341.97	14.913
342.33	14.880
342.69	14.757
343.04	14.646
343.40	14.638
343.76	14.554
344.12	14.475
344.47	14.457
344.83	14.332
345.19	14.168
345.54	14.168
345.90	14.070
346.26	14.081
346.61	14.067
346.97	14.086
347.32	14.058
347.68	14.081
348.04	14.070
348.39	13.999
348.75	13.990
349.11	14.013
349.46	13.929
349.82	13.875
350.18	13.826
350.53	13.749
350.89	13.708
351.24	13.683
351.60	13.562
351.96	13.510
352.31	13.515
352.67	13.466
353.02	13.394
353.38	13.402
353.74	13.404
354.09	13.385
354.45	13.276
354.80	13.227
355.16	13.133
355.52	13.158
355.87	13.101
356.23	12.982
356.58	12.948
356.94	12.971
357.29	12.843
357.65	12.816
358.00	12.700
358.36	12.746
358.72	12.698
359.07	12.684
359.43	12.582
359.78	12.617
360.14	12.681
360.49	12.717
360.85	12.627
361.20	12.680
361.56	12.668
361.91	12.721
362.27	12.662
362.62	12.667
362.98	12.733
363.33	12.740
363.69	12.671
364.04	12.607
364.40	12.494
364.75	12.516
365.11	12.454
365.46	12.448
365.82	12.413
366.17	12.410
366.53	12.348
366.88	12.228
367.24	12.150
367.59	12.136
367.95	12.055
368.30	12.108
368.66	12.041
369.01	12.017
369.37	11.933
369.72	11.882
370.08	11.858
370.43	11.889
370.78	11.839
371.14	11.951
371.49	11.844
371.85	11.961
372.20	11.879
372.56	11.891
372.91	11.833
373.26	11.846
373.62	11.802
373.97	11.777
374.33	11.770
374.68	11.750
375.03	11.589
375.39	11.665
375.74	11.552
376.10	11.487
376.45	11.460
376.80	11.477
377.16	11.376
377.51	11.364
377.87	11.361
378.22	11.272
378.57	11.275
378.93	11.316
379.28	11.238
379.63	11.203
379.99	11.183
380.34	11.143
380.70	11.088
381.05	11.170
381.40	11.115
381.76	11.040
382.11	10.990
382.46	10.975
382.82	10.982
383.17	11.031
383.52	11.031
383.88	11.054
384.23	11.058
384.58	11.056
384.94	10.953
385.29	10.971
385.64	10.924
385.99	10.905
386.35	10.823
386.70	10.745
387.05	10.637
387.41	10.585
387.76	10.495
388.11	10.441
388.47	10.380
388.82	10.409
389.17	10.317
389.52	10.275
389.88	10.261
390.23	10.287
390.58	10.239
390.93	10.236
391.29	10.223
391.64	10.270
391.99	10.290
392.34	10.325
392.70	10.272
393.05	10.313
393.40	10.327
393.75	10.292
394.11	10.269
394.46	10.249
394.81	10.214
395.16	10.165
395.52	10.032
395.87	9.965
396.22	9.841
396.57	9.790
396.92	9.738
397.28	9.714
397.63	9.664
397.98	9.576
398.33	9.556
398.68	9.498
399.04	9.483
399.39	9.510
399.74	9.428
400.09	9.427
400.44	9.414
400.80	9.355
401.15	9.314
401.50	9.308
401.85	9.297
402.20	9.244
402.55	9.219
402.90	9.197
403.26	9.175
403.61	9.200
403.96	9.163
404.31	9.118
404.66	9.064
405.01	9.043
405.36	8.977
405.72	8.955
406.07	8.899
406.42	8.872
406.77	8.839
407.12	8.797
407.47	8.742
407.82	8.729
408.17	8.702
408.53	8.754
408.88	8.743
409.23	8.761
409.58	8.730
409.93	8.750
410.28	8.738
410.63	8.732
410.98	8.690
411.33	8.714
411.68	8.733
412.03	8.706
412.38	8.649
412.73	8.613
413.09	8.579
413.44	8.555
413.79	8.539
414.14	8.538
414.49	8.489
414.84	8.493
415.19	8.457
415.54	8.420
415.89	8.408
416.24	8.396
416.59	8.389
416.94	8.382
417.29	8.370
417.64	8.351
417.99	8.342
418.34	8.346
418.69	8.346
419.04	8.332
419.39	8.317
419.74	8.297
420.09	8.274
420.44	8.261
420.79	8.244
421.14	8.247
421.49	8.248
421.84	8.240
422.19	8.225
422.54	8.217
422.89	8.206
423.24	8.206
423.59	8.217
423.94	8.238
424.29	8.238
424.64	8.245
424.99	8.213
425.34	8.223
425.68	8.203
426.03	8.185
426.38	8.177
426.73	8.195
427.08	8.195
427.43	8.161
427.78	8.156
428.13	8.133
428.48	8.133
428.83	8.154
429.18	8.122
429.53	8.115
429.87	8.126
430.22	8.116
430.57	8.094
430.92	8.085
431.27	8.115
431.62	8.093
431.97	8.074
432.32	8.081
432.67	8.084
433.01	8.070
433.36	8.085
433.71	8.090
434.06	8.096
434.41	8.079
434.76	8.074
435.11	8.062
435.45	8.077
435.80	8.095
436.15	8.089
436.50	8.092
436.85	8.116
437.20	8.101
437.54	8.107
437.89	8.121
438.24	8.145
438.59	8.154
438.94	8.156
439.29	8.170
439.63	8.188
439.98	8.188
440.33	8.184
440.68	8.181
441.03	8.185
441.37	8.202
441.72	8.197
442.07	8.209
442.42	8.216
442.76	8.245
443.11	8.242
443.46	8.246
443.81	8.266
444.16	8.268
444.50	8.271
444.85	8.274
445.20	8.252
445.55	8.253
445.89	8.257
446.24	8.262
446.59	8.261
446.94	8.269
447.28	8.277
447.63	8.249
447.98	8.250
448.32	8.259
448.67	8.302
449.02	8.318
449.37	8.323
449.71	8.318
450.06	8.319
450.41	8.313
450.75	8.335
451.10	8.352
451.45	8.382
451.79	8.388
452.14	8.398
452.49	8.390
452.84	8.390
453.18	8.379
453.53	8.375
453.88	8.369
454.22	8.387
454.57	8.361
454.92	8.361
455.26	8.356
455.61	8.387
455.95	8.403
456.30	8.422
456.65	8.445
456.99	8.470
457.34	8.491
457.69	8.502
458.03	8.488
458.38	8.504
458.73	8.508
459.07	8.524
459.42	8.527
459.76	8.533
460.11	8.524
460.46	8.522
460.80	8.538
461.15	8.537
461.49	8.541
461.84	8.570
462.19	8.561
462.53	8.569
462.88	8.580
463.22	8.555
463.57	8.545
463.91	8.557
464.26	8.554
464.61	8.546
464.95	8.561
465.30	8.575
465.64	8.563
465.99	8.598
466.33	8.601
466.68	8.618
467.02	8.643
467.37	8.640
467.71	8.636
468.06	8.639
468.41	8.616
468.75	8.596
469.10	8.609
469.44	8.614
469.79	8.589
470.13	8.584
470.48	8.541
470.82	8.515
471.17	8.504
471.51	8.475
471.86	8.466
472.20	8.471
472.55	8.443
472.89	8.419
473.23	8.401
473.58	8.389
473.92	8.351
474.27	8.346
474.61	8.362
474.96	8.351
475.30	8.352
475.65	8.337
475.99	8.329
476.34	8.338
476.68	8.330
477.02	8.311
477.37	8.318
477.71	8.343
478.06	8.377
478.40	8.380
478.75	8.394
479.09	8.427
479.43	8.467
479.78	8.528
480.12	8.608
480.47	8.671
480.81	8.743
481.15	8.798
481.50	8.861
481.84	8.942
482.19	9.027
482.53	9.089
482.87	9.102
483.22	9.049
483.56	9.013
483.90	8.985
484.25	8.954
484.59	8.920
484.94	8.884
485.28	8.825
485.62	8.732
485.97	8.641
486.31	8.574
486.65	8.556
487.00	8.617
487.34	8.634
487.68	8.620
488.03	8.617
488.37	8.598
488.71	8.583
489.06	8.575
489.40	8.566
489.74	8.560
490.09	8.541
490.43	8.512
490.77	8.490
491.11	8.485
491.46	8.468
491.80	8.449
492.14	8.433
492.49	8.405
492.83	8.382
493.17	8.366
493.51	8.312
493.86	8.311
494.20	8.303
494.54	8.306
494.88	8.307
495.23	8.318
495.57	8.318
495.91	8.321
496.25	8.337
496.60	8.374
496.94	8.387
497.28	8.421
497.62	8.426
497.97	8.462
498.31	8.478
498.65	8.497
498.99	8.507
499.33	8.536
499.68	8.581
500.02	8.611
500.36	8.595
500.70	8.620
501.04	8.650
501.39	8.673
501.73	8.681
502.07	8.714
502.41	8.700
502.75	8.732
503.09	8.746
503.44	8.753
503.78	8.801
504.12	8.832
504.46	8.867
504.80	8.894
505.14	8.924
505.49	8.966
505.83	9.006
506.17	9.045
506.51	9.057
506.85	9.077
507.19	9.109
507.53	9.116
507.87	9.139
508.22	9.150
508.56	9.185
508.90	9.206
509.24	9.207
509.58	9.186
509.92	9.212
510.26	9.247
510.60	9.282
510.94	9.292
511.28	9.306
511.63	9.330
511.97	9.343
512.31	9.339
512.65	9.348
512.99	9.369
513.33	9.405
513.67	9.414
514.01	9.445
514.35	9.454
514.69	9.475
515.03	9.498
515.37	9.512
515.71	9.528
516.05	9.530
516.39	9.546
516.73	9.555
517.07	9.551
517.41	9.565
517.75	9.547
518.09	9.552
518.43	9.560
518.77	9.540
519.11	9.519
519.45	9.493
519.79	9.491
520.13	9.477
520.47	9.463
520.81	9.472
521.15	9.464
521.49	9.460
521.83	9.450
522.17	9.455
522.51	9.466
522.85	9.506
523.19	9.539
523.53	9.549
523.87	9.587
524.21	9.628
524.55	9.665
524.89	9.723
525.23	9.786
525.57	9.837
525.91	9.883
526.25	9.930
526.58	9.959
526.92	9.988
527.26	10.016
527.60	10.028
527.94	10.044
528.28	10.031
528.62	9.999
528.96	9.954
529.30	9.908
529.64	9.857
529.97	9.802
530.31	9.742
530.65	9.701
530.99	9.651
531.33	9.610
531.67	9.557
532.01	9.537
532.35	9.522
532.68	9.518
533.02	9.517
533.36	9.513
533.70	9.501
534.04	9.483
534.38	9.438
534.71	9.431
535.05	9.396
535.39	9.371
535.73	9.332
536.07	9.296
536.41	9.247
536.74	9.215
537.08	9.185
537.42	9.179
537.76	9.203
538.10	9.231
538.43	9.244
538.77	9.255
539.11	9.271
539.45	9.290
539.79	9.307
540.12	9.341
540.46	9.356
540.80	9.360
541.14	9.347
541.47	9.323
541.81	9.293
542.15	9.250
542.49	9.230
542.82	9.203
543.16	9.174
543.50	9.139
543.84	9.092
544.17	9.024
544.51	8.976
544.85	8.939
545.18	8.917
545.52	8.884
545.86	8.888
546.20	8.852
546.53	8.817
546.87	8.770
547.21	8.732
547.54	8.704
547.88	8.690
548.22	8.673
548.55	8.654
548.89	8.616
549.23	8.618
549.56	8.584
549.90	8.590
550.24	8.558
550.57	8.585
550.91	8.586
551.25	8.570
551.58	8.594
551.92	8.575
552.26	8.578
552.59	8.581
552.93	8.595
553.27	8.569
553.60	8.548
553.94	8.592
554.27	8.566
554.61	8.554
554.95	8.559
555.28	8.547
555.62	8.556
555.95	8.579
556.29	8.591
556.63	8.581
556.96	8.607
557.30	8.641
557.63	8.612
557.97	8.614
558.31	8.628
558.64	8.606
558.98	8.595
559.31	8.616
559.65	8.601
559.98	8.615
560.32	8.610
560.65	8.601
560.99	8.574
561.33	8.594
561.66	8.588
562.00	8.584
562.33	8.626
562.67	8.642
563.00	8.655
563.34	8.673
563.67	8.676
564.01	8.692
564.34	8.729
564.68	8.766
565.01	8.782
565.35	8.816
565.68	8.851
566.02	8.857
566.35	8.876
566.69	8.878
567.02	8.873
567.36	8.863
567.69	8.873
568.03	8.849
568.36	8.846
568.69	8.846
569.03	8.864
569.36	8.860
569.70	8.862
570.03	8.863
570.37	8.869
570.70	8.881
571.04	8.891
571.37	8.868
571.70	8.879
572.04	8.861
572.37	8.873
572.71	8.859
573.04	8.869
573.37	8.894
573.71	8.914
574.04	8.914
574.38	8.901
574.71	8.899
575.04	8.928
575.38	8.934
575.71	8.966
576.05	8.986
576.38	8.975
576.71	8.932
577.05	8.876
577.38	8.851
577.71	8.839
578.05	8.847
578.38	8.864
578.71	8.828
579.05	8.828
579.38	8.811
579.71	8.790
580.05	8.791
580.38	8.853
580.71	8.866
581.05	8.844
581.38	8.867
581.71	8.882
582.05	8.897
582.38	8.941
582.71	8.948
583.04	8.958
583.38	8.967
583.71	8.994
584.04	8.973
584.38	9.030
584.71	9.071
585.04	9.112
585.37	9.138
585.71	9.163
586.04	9.168
586.37	9.218
586.70	9.248
587.04	9.280
587.37	9.326
587.70	9.370
588.03	9.387
588.37	9.417
588.70	9.434
589.03	9.466
589.36	9.457
589.69	9.486
590.03	9.484
590.36	9.485
590.69	9.518
591.02	9.513
591.35	9.506
591.69	9.501
592.02	9.517
592.35	9.532
592.68	9.518
593.01	9.545
593.35	9.578
593.68	9.599
594.01	9.653
594.34	9.667
594.67	9.687
595.00	9.714
595.34	9.712
595.67	9.739
596.00	9.752
596.33	9.798
596.66	9.811
596.99	9.847
597.32	9.853
597.65	9.857
597.99	9.842
598.32	9.879
598.65	9.874
598.98	9.940
599.31	9.930
599.64	9.937
599.97	9.897
600.30	9.941
600.63	9.932
600.96	9.990
601.30	10.016
601.63	10.040
601.96	10.051
602.29	10.087
602.62	10.095
602.95	10.142
603.28	10.184
603.61	10.278
603.94	10.286
604.27	10.284
604.60	10.279
604.93	10.285
605.26	10.306
605.59	10.313
605.92	10.284
606.25	10.255
606.58	10.266
606.91	10.245
607.24	10.203
607.57	10.214
607.90	10.245
608.23	10.255
608.56	10.262
608.89	10.251
609.22	10.273
609.55	10.329
609.88	10.358
610.21	10.364
610.54	10.373
610.87	10.383
611.20	10.399
611.53	10.413
611.86	10.416
612.19	10.428
612.52	10.487
612.85	10.482
613.18	10.471
613.51	10.498
613.84	10.486
614.17	10.488
614.49	10.498
614.82	10.471
615.15	10.447
615.48	10.428
615.81	10.412
616.14	10.362
616.47	10.325
616.80	10.339
617.13	10.344
617.46	10.332
617.78	10.375
618.11	10.349
618.44	10.361
618.77	10.365
619.10	10.341
619.43	10.339
619.76	10.327
620.09	10.310
620.41	10.283
620.74	10.250
621.07	10.284
621.40	10.253
621.73	10.266
622.06	10.290
622.38	10.273
622.71	10.318
623.04	10.365
623.37	10.424
623.70	10.444
624.02	10.479
624.35	10.502
624.68	10.502
625.01	10.534
625.34	10.572
625.66	10.583
625.99	10.615
626.32	10.594
626.65	10.571
626.98	10.519
627.30	10.535
627.63	10.526
627.96	10.522
628.29	10.536
628.61	10.514
628.94	10.470
629.27	10.455
629.60	10.442
629.92	10.453
630.25	10.458
630.58	10.505
630.91	10.493
631.23	10.451
631.56	10.455
631.89	10.440
632.21	10.383
632.54	10.382
632.87	10.347
633.19	10.377
633.52	10.396
633.85	10.315
634.18	10.289
634.50	10.289
634.83	10.321
635.16	10.296
635.48	10.288
635.81	10.298
636.14	10.316
636.46	10.312
636.79	10.282
637.11	10.265
637.44	10.309
637.77	10.260
638.09	10.222
638.42	10.232
638.75	10.211
639.07	10.183
639.40	10.218
639.73	10.174
640.05	10.211
640.38	10.191
640.70	10.171
641.03	10.192
641.36	10.213
641.68	10.274
642.01	10.237
642.33	10.307
642.66	10.302
642.98	10.269
643.31	10.262
643.64	10.263
643.96	10.271
644.29	10.261
644.61	10.262
644.94	10.275
645.26	10.282
645.59	10.287
645.91	10.267
646.24	10.285
646.56	10.368
646.89	10.398
647.22	10.346
647.54	10.335
647.87	10.320
648.19	10.317
648.52	10.335
