OOIBase32 Version 2.0.0.6 Data File
++++++++++++++++++++++++++++++++++++
Date: 01-19-2012, 17:42:33
User: Valued Ocean Optics Customer
Spectrometer Serial Number: USB2E2917
Spectrometer Channel: Master
Integration Time (msec): 6
Spectra Averaged: 10
Boxcar Smoothing: 5
Correct for Electrical Dark: Enabled
Time Normalized: Disabled
Dual-beam Reference: Disabled
Reference Channel: Master
Temperature: Not acquired
Spectrometer Type: S2000
ADC Type: USB2000
Number of Pixels in File: 2048
Graph Title: 
>>>>>Begin Spectral Data<<<<<
180.30	0.000
180.67	0.000
181.03	12.215
181.40	76.637
181.77	68.233
182.14	152.920
182.51	111.245
182.88	312.836
183.25	-169.871
183.62	103.549
183.99	386.431
184.36	-69.688
184.73	-239.905
185.10	180.052
185.46	66.960
185.83	53.744
186.20	-92.182
186.57	-22.991
186.94	123.114
187.31	292.221
187.68	53.399
188.05	78.361
188.42	66.921
188.78	66.528
189.15	67.227
189.52	48.484
189.89	30.633
190.26	26.539
190.63	37.784
191.00	33.719
191.37	28.531
191.73	25.838
192.10	18.133
192.47	15.970
192.84	12.043
193.21	0.863
193.58	-23.189
193.94	-6.426
194.31	-8.220
194.68	-16.038
195.05	-22.804
195.42	-23.132
195.79	-23.684
196.15	-0.417
196.52	1.037
196.89	6.950
197.26	20.840
197.63	23.647
198.00	20.725
198.36	26.082
198.73	6.946
199.10	3.372
199.47	-13.703
199.84	-16.811
200.20	-12.437
200.57	-33.564
200.94	-17.223
201.31	-16.312
201.68	-8.530
202.04	-4.954
202.41	-13.941
202.78	-8.509
203.15	5.812
203.51	18.778
203.88	20.889
204.25	16.621
204.62	24.384
204.98	2.319
205.35	-1.072
205.72	-9.079
206.09	-27.755
206.46	0.413
206.82	8.812
207.19	-4.141
207.56	-19.273
207.92	-14.031
208.29	-44.521
208.66	-51.161
209.03	-31.109
209.39	-18.647
209.76	-9.019
210.13	2.574
210.50	6.011
210.86	9.644
211.23	18.010
211.60	28.288
211.96	22.760
212.33	27.189
212.70	26.863
213.07	32.721
213.43	23.981
213.80	21.219
214.17	15.875
214.53	1.385
214.90	6.677
215.27	6.984
215.63	1.148
216.00	-2.915
216.37	-6.304
216.74	-4.434
217.10	-15.990
217.47	-18.432
217.84	-15.307
218.20	-7.597
218.57	-1.526
218.94	-4.518
219.30	-8.238
219.67	-3.635
220.04	-3.712
220.40	-6.146
220.77	-8.102
221.13	-4.093
221.50	-9.037
221.87	-9.896
222.23	-15.710
222.60	-13.989
222.97	-13.137
223.33	-8.769
223.70	-6.330
224.07	-6.192
224.43	-2.291
224.80	-1.242
225.16	-0.477
225.53	3.425
225.90	3.445
226.26	3.786
226.63	3.803
226.99	3.727
227.36	3.727
227.73	3.067
228.09	3.160
228.46	3.281
228.82	3.444
229.19	2.872
229.56	0.917
229.92	0.146
230.29	-0.764
230.65	-1.975
231.02	-3.089
231.38	-4.147
231.75	-5.702
232.12	-4.347
232.48	-3.368
232.85	-2.264
233.21	-0.614
233.58	0.109
233.94	1.523
234.31	3.182
234.68	3.324
235.04	4.952
235.41	5.499
235.77	5.584
236.14	4.511
236.50	3.848
236.87	3.019
237.23	2.328
237.60	2.668
237.96	1.833
238.33	2.320
238.69	2.784
239.06	2.189
239.42	2.093
239.79	2.452
240.15	2.920
240.52	2.868
240.88	3.083
241.25	3.432
241.61	3.692
241.98	3.978
242.34	3.412
242.71	3.390
243.07	3.009
243.44	2.725
243.80	2.613
244.17	2.663
244.53	2.798
244.90	2.476
245.26	2.219
245.63	2.262
245.99	2.253
246.36	2.468
246.72	2.418
247.09	2.679
247.45	2.833
247.81	2.953
248.18	2.644
248.54	2.443
248.91	2.515
249.27	2.419
249.64	2.044
250.00	2.124
250.36	1.665
250.73	1.609
251.09	1.461
251.46	1.494
251.82	1.358
252.19	1.563
252.55	1.540
252.91	1.719
253.28	2.356
253.64	2.731
254.01	3.301
254.37	3.791
254.73	3.614
255.10	3.190
255.46	3.185
255.83	2.905
256.19	2.775
256.55	2.718
256.92	2.690
257.28	2.266
257.65	2.196
258.01	2.025
258.37	1.918
258.74	1.974
259.10	2.030
259.46	1.879
259.83	2.144
260.19	2.184
260.55	2.063
260.92	2.041
261.28	2.141
261.64	1.977
262.01	1.856
262.37	1.810
262.73	1.752
263.10	1.820
263.46	1.812
263.82	1.442
264.19	1.291
264.55	1.408
264.91	1.406
265.28	1.550
265.64	1.594
266.00	1.633
266.37	1.772
266.73	1.745
267.09	1.886
267.46	1.831
267.82	1.821
268.18	1.779
268.54	1.717
268.91	1.825
269.27	1.645
269.63	1.458
270.00	1.412
270.36	1.303
270.72	1.310
271.08	1.314
271.45	1.450
271.81	1.587
272.17	1.947
272.53	2.243
272.90	2.127
273.26	2.255
273.62	2.471
273.98	2.469
274.35	2.605
274.71	2.917
275.07	2.854
275.43	2.897
275.80	2.727
276.16	2.560
276.52	2.429
276.88	2.493
277.25	2.401
277.61	2.564
277.97	2.496
278.33	2.431
278.69	2.231
279.06	2.244
279.42	2.186
279.78	2.088
280.14	1.926
280.50	1.815
280.87	1.915
281.23	1.849
281.59	1.719
281.95	1.831
282.31	1.930
282.68	1.739
283.04	1.642
283.40	1.635
283.76	1.774
284.12	1.919
284.48	1.829
284.85	1.549
285.21	1.519
285.57	1.474
285.93	1.328
286.29	1.296
286.65	1.592
287.02	1.683
287.38	1.807
287.74	1.850
288.10	1.738
288.46	1.834
288.82	2.210
289.18	2.377
289.54	2.317
289.91	2.525
290.27	2.450
290.63	2.264
290.99	2.195
291.35	2.002
291.71	1.840
292.07	1.810
292.43	1.708
292.79	1.563
293.16	1.624
293.52	1.718
293.88	1.626
294.24	1.732
294.60	1.768
294.96	1.842
295.32	1.913
295.68	2.024
296.04	2.139
296.40	2.193
296.76	2.138
297.12	2.095
297.49	2.170
297.85	2.258
298.21	2.176
298.57	2.186
298.93	2.159
299.29	2.200
299.65	2.171
300.01	2.143
300.37	2.279
300.73	2.403
301.09	2.384
301.45	2.212
301.81	2.027
302.17	2.121
302.53	1.984
302.89	2.050
303.25	2.114
303.61	1.988
303.97	1.975
304.33	1.940
304.69	1.737
305.05	1.833
305.41	1.925
305.77	2.043
306.13	2.013
306.49	2.131
306.85	1.938
307.21	1.858
307.57	2.023
307.93	1.977
308.29	1.931
308.65	2.022
309.01	2.065
309.37	2.095
309.73	2.012
310.09	1.913
310.45	1.852
310.81	2.007
311.17	2.013
311.53	2.021
311.89	2.056
312.25	2.179
312.61	2.262
312.96	2.135
313.32	2.334
313.68	2.382
314.04	2.354
314.40	2.401
314.76	2.321
315.12	2.282
315.48	2.259
315.84	2.248
316.20	2.106
316.56	1.930
316.92	2.129
317.27	1.816
317.63	1.912
317.99	2.229
318.35	2.320
318.71	2.334
319.07	2.283
319.43	2.367
319.79	2.402
320.15	2.592
320.50	2.770
320.86	2.636
321.22	2.857
321.58	2.745
321.94	2.528
322.30	2.484
322.66	2.543
323.01	2.655
323.37	2.589
323.73	2.599
324.09	2.507
324.45	2.374
324.81	2.301
325.17	2.191
325.52	2.169
325.88	2.202
326.24	2.259
326.60	2.223
326.96	2.169
327.31	2.112
327.67	2.088
328.03	2.011
328.39	2.054
328.75	2.055
329.11	1.956
329.46	2.084
329.82	2.066
330.18	2.087
330.54	2.113
330.90	2.099
331.25	2.148
331.61	2.212
331.97	2.292
332.33	2.324
332.68	2.302
333.04	2.395
333.40	2.402
333.76	2.495
334.11	2.419
334.47	2.386
334.83	2.456
335.19	2.437
335.54	2.404
335.90	2.344
336.26	2.244
336.62	2.264
336.97	2.255
337.33	2.165
337.69	2.051
338.05	2.052
338.40	2.065
338.76	1.997
339.12	1.986
339.48	1.977
339.83	2.095
340.19	2.191
340.55	2.244
340.90	2.311
341.26	2.391
341.62	2.438
341.97	2.406
342.33	2.352
342.69	2.358
343.04	2.381
343.40	2.400
343.76	2.307
344.12	2.243
344.47	2.142
344.83	2.214
345.19	2.166
345.54	2.275
345.90	2.293
346.26	2.337
346.61	2.390
346.97	2.370
347.32	2.335
347.68	2.401
348.04	2.508
348.39	2.629
348.75	2.548
349.11	2.592
349.46	2.468
349.82	2.462
350.18	2.458
350.53	2.445
350.89	2.463
351.24	2.499
351.60	2.454
351.96	2.326
352.31	2.301
352.67	2.346
353.02	2.332
353.38	2.371
353.74	2.411
354.09	2.461
354.45	2.449
354.80	2.439
355.16	2.458
355.52	2.538
355.87	2.571
356.23	2.561
356.58	2.505
356.94	2.549
357.29	2.525
357.65	2.546
358.00	2.558
358.36	2.599
358.72	2.634
359.07	2.564
359.43	2.452
359.78	2.482
360.14	2.476
360.49	2.541
360.85	2.497
361.20	2.567
361.56	2.523
361.91	2.510
362.27	2.450
362.62	2.470
362.98	2.529
363.33	2.613
363.69	2.625
364.04	2.618
364.40	2.588
364.75	2.584
365.11	2.550
365.46	2.585
365.82	2.593
366.17	2.626
366.53	2.582
366.88	2.559
367.24	2.524
367.59	2.481
367.95	2.540
368.30	2.541
368.66	2.554
369.01	2.540
369.37	2.564
369.72	2.565
370.08	2.546
370.43	2.561
370.78	2.557
371.14	2.623
371.49	2.662
371.85	2.640
372.20	2.584
372.56	2.605
372.91	2.576
373.26	2.570
373.62	2.566
373.97	2.580
374.33	2.605
374.68	2.620
375.03	2.552
375.39	2.558
375.74	2.560
376.10	2.608
376.45	2.565
376.80	2.569
377.16	2.565
377.51	2.548
377.87	2.558
378.22	2.547
378.57	2.540
378.93	2.529
379.28	2.544
379.63	2.532
379.99	2.523
380.34	2.564
380.70	2.590
381.05	2.595
381.40	2.635
381.76	2.652
382.11	2.614
382.46	2.646
382.82	2.677
383.17	2.653
383.52	2.664
383.88	2.673
384.23	2.657
384.58	2.685
384.94	2.700
385.29	2.676
385.64	2.657
385.99	2.723
386.35	2.700
386.70	2.699
387.05	2.727
387.41	2.706
387.76	2.712
388.11	2.715
388.47	2.682
388.82	2.632
389.17	2.636
389.52	2.632
389.88	2.618
390.23	2.630
390.58	2.620
390.93	2.618
391.29	2.632
391.64	2.599
391.99	2.581
392.34	2.590
392.70	2.603
393.05	2.604
393.40	2.633
393.75	2.640
394.11	2.609
394.46	2.606
394.81	2.571
395.16	2.577
395.52	2.602
395.87	2.616
396.22	2.656
396.57	2.715
396.92	2.756
397.28	2.765
397.63	2.766
397.98	2.795
398.33	2.800
398.68	2.824
399.04	2.841
399.39	2.875
399.74	2.860
400.09	2.809
400.44	2.788
400.80	2.757
401.15	2.752
401.50	2.749
401.85	2.780
402.20	2.775
402.55	2.783
402.90	2.771
403.26	2.732
403.61	2.758
403.96	2.789
404.31	2.803
404.66	2.809
405.01	2.818
405.36	2.832
405.72	2.813
406.07	2.831
406.42	2.848
406.77	2.882
407.12	2.908
407.47	2.947
407.82	2.962
408.17	2.968
408.53	2.978
408.88	2.968
409.23	2.959
409.58	2.947
409.93	2.954
410.28	2.958
410.63	2.953
410.98	2.954
411.33	2.951
411.68	2.929
412.03	2.916
412.38	2.927
412.73	2.942
413.09	2.941
413.44	2.950
413.79	2.965
414.14	2.940
414.49	2.924
414.84	2.925
415.19	2.882
415.54	2.901
415.89	2.884
416.24	2.868
416.59	2.861
416.94	2.861
417.29	2.855
417.64	2.838
417.99	2.843
418.34	2.851
418.69	2.857
419.04	2.865
419.39	2.856
419.74	2.866
420.09	2.886
420.44	2.888
420.79	2.896
421.14	2.921
421.49	2.943
421.84	2.959
422.19	2.968
422.54	2.983
422.89	3.011
423.24	3.020
423.59	3.032
423.94	3.040
424.29	3.061
424.64	3.074
424.99	3.078
425.34	3.083
425.68	3.096
426.03	3.129
426.38	3.139
426.73	3.159
427.08	3.191
427.43	3.226
427.78	3.224
428.13	3.236
428.48	3.257
428.83	3.270
429.18	3.279
429.53	3.271
429.87	3.266
430.22	3.274
430.57	3.271
430.92	3.278
431.27	3.286
431.62	3.304
431.97	3.313
432.32	3.314
432.67	3.334
433.01	3.359
433.36	3.374
433.71	3.391
434.06	3.394
434.41	3.415
434.76	3.448
435.11	3.464
435.45	3.462
435.80	3.473
436.15	3.485
436.50	3.479
436.85	3.479
437.20	3.492
437.54	3.492
437.89	3.495
438.24	3.509
438.59	3.495
438.94	3.485
439.29	3.507
439.63	3.512
439.98	3.513
440.33	3.528
440.68	3.546
441.03	3.563
441.37	3.586
441.72	3.616
442.07	3.626
442.42	3.644
442.76	3.661
443.11	3.660
443.46	3.677
443.81	3.699
444.16	3.703
444.50	3.701
444.85	3.722
445.20	3.727
445.55	3.739
445.89	3.749
446.24	3.761
446.59	3.791
446.94	3.813
447.28	3.835
447.63	3.877
447.98	3.922
448.32	3.963
448.67	3.971
449.02	4.007
449.37	4.033
449.71	4.047
450.06	4.060
450.41	4.075
450.75	4.115
451.10	4.142
451.45	4.148
451.79	4.169
452.14	4.188
452.49	4.220
452.84	4.233
453.18	4.242
453.53	4.267
453.88	4.293
454.22	4.299
454.57	4.294
454.92	4.297
455.26	4.289
455.61	4.273
455.95	4.273
456.30	4.278
456.65	4.294
456.99	4.301
457.34	4.307
457.69	4.311
458.03	4.322
458.38	4.341
458.73	4.358
459.07	4.379
459.42	4.407
459.76	4.445
460.11	4.483
460.46	4.512
460.80	4.543
461.15	4.586
461.49	4.633
461.84	4.670
462.19	4.713
462.53	4.737
462.88	4.797
463.22	4.839
463.57	4.852
463.91	4.851
464.26	4.868
464.61	4.901
464.95	4.917
465.30	4.936
465.64	4.949
465.99	4.962
466.33	4.982
466.68	4.983
467.02	4.995
467.37	4.994
467.71	5.021
468.06	5.036
468.41	5.047
468.75	5.065
469.10	5.079
469.44	5.105
469.79	5.116
470.13	5.147
470.48	5.162
470.82	5.180
471.17	5.217
471.51	5.234
471.86	5.241
472.20	5.261
472.55	5.267
472.89	5.278
473.23	5.290
473.58	5.325
473.92	5.328
474.27	5.339
474.61	5.345
474.96	5.354
475.30	5.376
475.65	5.393
475.99	5.414
476.34	5.433
476.68	5.438
477.02	5.438
477.37	5.420
477.71	5.412
478.06	5.396
478.40	5.397
478.75	5.397
479.09	5.395
479.43	5.456
479.78	5.549
480.12	5.664
480.47	5.783
480.81	5.916
481.15	6.047
481.50	6.178
481.84	6.331
482.19	6.483
482.53	6.641
482.87	6.776
483.22	6.829
483.56	6.804
483.90	6.736
484.25	6.637
484.59	6.514
484.94	6.374
485.28	6.224
485.62	6.057
485.97	5.887
486.31	5.721
486.65	5.589
487.00	5.502
487.34	5.463
487.68	5.452
488.03	5.474
488.37	5.497
488.71	5.536
489.06	5.586
489.40	5.626
489.74	5.665
490.09	5.709
490.43	5.753
490.77	5.799
491.11	5.849
491.46	5.890
491.80	5.923
492.14	5.955
492.49	5.979
492.83	6.010
493.17	6.038
493.51	6.073
493.86	6.109
494.20	6.127
494.54	6.143
494.88	6.134
495.23	6.148
495.57	6.162
495.91	6.187
496.25	6.215
496.60	6.229
496.94	6.257
497.28	6.287
497.62	6.303
497.97	6.339
498.31	6.368
498.65	6.413
498.99	6.454
499.33	6.478
499.68	6.509
500.02	6.527
500.36	6.553
500.70	6.584
501.04	6.604
501.39	6.651
501.73	6.682
502.07	6.727
502.41	6.747
502.75	6.754
503.09	6.785
503.44	6.805
503.78	6.838
504.12	6.855
504.46	6.869
504.80	6.891
505.14	6.889
505.49	6.899
505.83	6.903
506.17	6.917
506.51	6.947
506.85	6.956
507.19	6.960
507.53	6.977
507.87	6.994
508.22	7.026
508.56	7.038
508.90	7.073
509.24	7.095
509.58	7.124
509.92	7.154
510.26	7.178
510.60	7.208
510.94	7.253
511.28	7.281
511.63	7.327
511.97	7.367
512.31	7.437
512.65	7.466
512.99	7.506
513.33	7.536
513.67	7.571
514.01	7.590
514.35	7.619
514.69	7.626
515.03	7.633
515.37	7.630
515.71	7.624
516.05	7.612
516.39	7.620
516.73	7.642
517.07	7.658
517.41	7.679
517.75	7.706
518.09	7.735
518.43	7.767
518.77	7.817
519.11	7.875
519.45	7.925
519.79	7.975
520.13	8.031
520.47	8.068
520.81	8.109
521.15	8.136
521.49	8.166
521.83	8.175
522.17	8.196
522.51	8.204
522.85	8.192
523.19	8.187
523.53	8.184
523.87	8.190
524.21	8.226
524.55	8.299
524.89	8.392
525.23	8.487
525.57	8.574
525.91	8.665
526.25	8.754
526.58	8.851
526.92	8.942
527.26	9.012
527.60	9.031
527.94	8.993
528.28	8.897
528.62	8.762
528.96	8.622
529.30	8.569
529.64	8.507
529.97	8.442
530.31	8.379
530.65	8.322
530.99	8.281
531.33	8.298
531.67	8.358
532.01	8.460
532.35	8.601
532.68	8.743
533.02	8.778
533.36	8.813
533.70	8.842
534.04	8.874
534.38	8.897
534.71	8.932
535.05	8.970
535.39	9.005
535.73	9.041
536.07	9.073
536.41	9.076
536.74	9.093
537.08	9.099
537.42	9.128
537.76	9.117
538.10	9.131
538.43	9.140
538.77	9.143
539.11	9.158
539.45	9.164
539.79	9.172
540.12	9.191
540.46	9.214
540.80	9.236
541.14	9.252
541.47	9.286
541.81	9.314
542.15	9.339
542.49	9.376
542.82	9.411
543.16	9.465
543.50	9.509
543.84	9.559
544.17	9.609
544.51	9.664
544.85	9.702
545.18	9.731
545.52	9.764
545.86	9.814
546.20	9.867
546.53	9.913
546.87	9.950
547.21	10.002
547.54	10.065
547.88	10.101
548.22	10.142
548.55	10.182
548.89	10.259
549.23	10.309
549.56	10.336
549.90	10.337
550.24	10.372
550.57	10.393
550.91	10.406
551.25	10.407
551.58	10.427
551.92	10.445
552.26	10.477
552.59	10.483
552.93	10.525
553.27	10.582
553.60	10.621
553.94	10.655
554.27	10.688
554.61	10.729
554.95	10.775
555.28	10.794
555.62	10.831
555.95	10.861
556.29	10.887
556.63	10.876
556.96	10.886
557.30	10.904
557.63	10.898
557.97	10.919
558.31	10.921
558.64	10.929
558.98	10.942
559.31	10.947
559.65	10.955
559.98	10.951
560.32	10.966
560.65	10.957
560.99	10.957
561.33	10.981
561.66	10.978
562.00	10.975
562.33	10.977
562.67	10.979
563.00	10.961
563.34	10.934
563.67	10.949
564.01	10.935
564.34	10.922
564.68	10.923
565.01	10.907
565.35	10.904
565.68	10.916
566.02	10.901
566.35	10.921
566.69	10.940
567.02	10.944
567.36	10.939
567.69	10.946
568.03	10.954
568.36	10.941
568.69	10.932
569.03	10.911
569.36	10.889
569.70	10.895
570.03	10.879
570.37	10.853
570.70	10.863
571.04	10.865
571.37	10.873
571.70	10.875
572.04	10.890
572.37	10.905
572.71	10.923
573.04	10.953
573.37	10.974
573.71	11.000
574.04	11.057
574.38	11.111
574.71	11.129
575.04	11.158
575.38	11.207
575.71	11.263
576.05	11.295
576.38	11.353
576.71	11.395
577.05	11.425
577.38	11.456
577.71	11.479
578.05	11.472
578.38	11.506
578.71	11.522
579.05	11.553
579.38	11.577
579.71	11.613
580.05	11.629
580.38	11.635
580.71	11.674
581.05	11.697
581.38	11.731
581.71	11.754
582.05	11.781
582.38	11.810
582.71	11.809
583.04	11.813
583.38	11.823
583.71	11.825
584.04	11.851
584.38	11.849
584.71	11.867
585.04	11.840
585.37	11.828
585.71	11.832
586.04	11.821
586.37	11.811
586.70	11.821
587.04	11.823
587.37	11.822
587.70	11.809
588.03	11.807
588.37	11.792
588.70	11.833
589.03	11.855
589.36	11.854
589.69	11.877
590.03	11.897
590.36	11.911
590.69	11.915
591.02	11.925
591.35	11.945
591.69	11.927
592.02	11.929
592.35	11.885
592.68	11.886
593.01	11.885
593.35	11.879
593.68	11.859
594.01	11.831
594.34	11.808
594.67	11.794
595.00	11.778
595.34	11.786
595.67	11.773
596.00	11.806
596.33	11.825
596.66	11.873
596.99	11.865
597.32	11.898
597.65	11.912
597.99	11.956
598.32	11.995
598.65	12.042
598.98	12.081
599.31	12.094
599.64	12.071
599.97	12.057
600.30	11.998
600.63	12.001
600.96	11.968
601.30	11.934
601.63	11.916
601.96	11.885
602.29	11.839
602.62	11.799
602.95	11.832
603.28	11.854
603.61	11.879
603.94	11.893
604.27	11.906
604.60	11.946
604.93	11.999
605.26	12.007
605.59	12.028
605.92	12.081
606.25	12.134
606.58	12.131
606.91	12.139
607.24	12.126
607.57	12.155
607.90	12.171
608.23	12.171
608.56	12.176
608.89	12.214
609.22	12.258
609.55	12.259
609.88	12.273
610.21	12.330
610.54	12.381
610.87	12.453
611.20	12.486
611.53	12.523
611.86	12.550
612.19	12.577
612.52	12.591
612.85	12.601
613.18	12.624
613.51	12.655
613.84	12.637
614.17	12.627
614.49	12.623
614.82	12.637
615.15	12.656
615.48	12.659
615.81	12.669
616.14	12.679
616.47	12.683
616.80	12.701
617.13	12.707
617.46	12.729
617.78	12.753
618.11	12.742
618.44	12.754
618.77	12.780
619.10	12.825
619.43	12.839
619.76	12.842
620.09	12.868
620.41	12.873
620.74	12.862
621.07	12.877
621.40	12.860
621.73	12.872
622.06	12.874
622.38	12.862
622.71	12.844
623.04	12.825
623.37	12.794
623.70	12.773
624.02	12.751
624.35	12.717
624.68	12.671
625.01	12.662
625.34	12.657
625.66	12.624
625.99	12.614
626.32	12.624
626.65	12.649
626.98	12.701
627.30	12.729
627.63	12.775
627.96	12.841
628.29	12.907
628.61	12.939
628.94	12.955
629.27	12.990
629.60	13.018
629.92	13.057
630.25	13.100
630.58	13.124
630.91	13.108
631.23	13.105
631.56	13.116
631.89	13.113
632.21	13.144
632.54	13.174
632.87	13.206
633.19	13.211
633.52	13.216
633.85	13.235
634.18	13.248
634.50	13.317
634.83	13.327
635.16	13.347
635.48	13.380
635.81	13.401
636.14	13.434
636.46	13.451
636.79	13.491
637.11	13.519
637.44	13.522
637.77	13.504
638.09	13.481
638.42	13.485
638.75	13.490
639.07	13.461
639.40	13.460
639.73	13.460
640.05	13.449
640.38	13.456
640.70	13.464
641.03	13.458
641.36	13.494
641.68	13.536
642.01	13.571
642.33	13.554
642.66	13.602
642.98	13.620
643.31	13.611
643.64	13.607
643.96	13.587
644.29	13.546
644.61	13.541
644.94	13.517
645.26	13.480
645.59	13.493
645.91	13.505
646.24	13.464
646.56	13.413
646.89	13.398
647.22	13.385
647.54	13.374
647.87	13.394
648.19	13.373
648.52	13.372
648.84	13.352
649.17	13.281
649.49	13.280
649.82	13.302
650.14	13.326
650.47	13.315
650.79	13.357
651.11	13.343
651.44	13.362
651.76	13.396
652.09	13.397
652.41	13.419
