OOIBase32 Version 2.0.0.6 Data File
++++++++++++++++++++++++++++++++++++
Date: 01-19-2012, 17:23:05
User: Valued Ocean Optics Customer
Spectrometer Serial Number: USB2E2917
Spectrometer Channel: Master
Integration Time (msec): 6
Spectra Averaged: 10
Boxcar Smoothing: 5
Correct for Electrical Dark: Enabled
Time Normalized: Disabled
Dual-beam Reference: Disabled
Reference Channel: Master
Temperature: Not acquired
Spectrometer Type: S2000
ADC Type: USB2000
Number of Pixels in File: 2048
Graph Title: 
>>>>>Begin Spectral Data<<<<<
180.30	0.000
180.67	0.000
181.03	83.247
181.40	-16.087
181.77	63.108
182.14	185.103
182.51	13.901
182.88	33.096
183.25	-45.498
183.62	108.008
183.99	-34.166
184.36	145.660
184.73	194.260
185.10	136.056
185.46	89.304
185.83	98.291
186.20	-123.188
186.57	248.187
186.94	310.616
187.31	118.915
187.68	62.656
188.05	90.707
188.42	77.993
188.78	55.389
189.15	41.450
189.52	50.309
189.89	38.732
190.26	32.190
190.63	27.697
191.00	39.210
191.37	27.759
191.73	35.911
192.10	27.353
192.47	12.512
192.84	15.687
193.21	14.362
193.58	-9.501
193.94	-4.115
194.31	-20.188
194.68	-6.415
195.05	-25.826
195.42	-33.881
195.79	-63.343
196.15	-46.176
196.52	-30.543
196.89	-33.302
197.26	-48.262
197.63	-50.033
198.00	-55.999
198.36	-30.227
198.73	-47.527
199.10	-20.669
199.47	-10.231
199.84	0.126
200.20	-10.944
200.57	-18.624
200.94	-7.487
201.31	6.057
201.68	6.098
202.04	6.896
202.41	-4.427
202.78	6.439
203.15	4.249
203.51	-3.566
203.88	-3.116
204.25	15.117
204.62	18.030
204.98	15.977
205.35	6.594
205.72	-5.017
206.09	-17.935
206.46	-12.687
206.82	-10.046
207.19	-27.015
207.56	-36.918
207.92	-30.464
208.29	-66.979
208.66	-75.864
209.03	-87.649
209.39	-100.283
209.76	-77.047
210.13	-55.528
210.50	-43.770
210.86	-26.442
211.23	-16.574
211.60	-3.962
211.96	3.603
212.33	19.554
212.70	9.300
213.07	17.729
213.43	22.846
213.80	27.602
214.17	24.402
214.53	8.378
214.90	-2.763
215.27	2.173
215.63	0.417
216.00	-5.750
216.37	-16.028
216.74	3.047
217.10	3.534
217.47	8.766
217.84	8.495
218.20	14.115
218.57	20.510
218.94	15.479
219.30	7.323
219.67	4.924
220.04	-1.796
220.40	1.127
220.77	-8.276
221.13	-14.809
221.50	-20.413
221.87	-17.732
222.23	-21.581
222.60	-22.540
222.97	-19.999
223.33	-15.025
223.70	-11.731
224.07	-5.116
224.43	-4.158
224.80	-1.397
225.16	2.371
225.53	3.309
225.90	2.689
226.26	3.481
226.63	3.247
226.99	4.245
227.36	4.837
227.73	4.624
228.09	2.440
228.46	3.265
228.82	3.891
229.19	3.016
229.56	3.012
229.92	4.189
230.29	4.054
230.65	5.344
231.02	4.035
231.38	3.991
231.75	4.518
232.12	5.476
232.48	4.616
232.85	4.402
233.21	5.484
233.58	4.261
233.94	3.835
234.31	5.257
234.68	3.358
235.04	5.066
235.41	3.947
235.77	3.866
236.14	4.731
236.50	4.072
236.87	3.968
237.23	4.076
237.60	4.457
237.96	4.036
238.33	3.574
238.69	4.155
239.06	3.449
239.42	3.745
239.79	3.448
240.15	3.638
240.52	3.965
240.88	3.278
241.25	2.716
241.61	2.916
241.98	3.124
242.34	3.427
242.71	3.299
243.07	3.440
243.44	3.288
243.80	3.492
244.17	3.342
244.53	3.366
244.90	3.426
245.26	3.513
245.63	3.364
245.99	3.310
246.36	3.114
246.72	3.048
247.09	3.230
247.45	3.454
247.81	3.405
248.18	3.193
248.54	3.212
248.91	3.220
249.27	3.147
249.64	3.118
250.00	3.191
250.36	3.080
250.73	2.799
251.09	2.741
251.46	2.529
251.82	2.176
252.19	2.085
252.55	1.989
252.91	2.268
253.28	2.799
253.64	2.790
254.01	2.942
254.37	2.822
254.73	3.392
255.10	3.401
255.46	3.453
255.83	3.404
256.19	3.477
256.55	3.562
256.92	3.408
257.28	2.945
257.65	2.827
258.01	2.685
258.37	2.752
258.74	2.713
259.10	2.640
259.46	2.469
259.83	2.667
260.19	2.717
260.55	2.685
260.92	2.754
261.28	3.017
261.64	3.213
262.01	3.375
262.37	3.483
262.73	3.521
263.10	3.403
263.46	3.491
263.82	3.173
264.19	3.122
264.55	2.905
264.91	2.814
265.28	2.865
265.64	3.082
266.00	2.843
266.37	2.690
266.73	2.929
267.09	3.017
267.46	3.042
267.82	3.279
268.18	3.128
268.54	3.294
268.91	3.373
269.27	3.417
269.63	2.984
270.00	3.223
270.36	3.366
270.72	3.305
271.08	3.211
271.45	3.332
271.81	3.238
272.17	3.454
272.53	3.283
272.90	3.222
273.26	2.898
273.62	3.018
273.98	2.810
274.35	2.533
274.71	2.495
275.07	2.558
275.43	2.355
275.80	2.365
276.16	2.148
276.52	2.318
276.88	2.308
277.25	2.468
277.61	2.698
277.97	2.722
278.33	2.865
278.69	2.737
279.06	2.673
279.42	2.810
279.78	2.750
280.14	2.811
280.50	2.716
280.87	2.780
281.23	2.658
281.59	2.655
281.95	2.722
282.31	2.765
282.68	2.720
283.04	2.746
283.40	2.711
283.76	2.750
284.12	2.911
284.48	2.871
284.85	2.676
285.21	2.724
285.57	2.737
285.93	2.536
286.29	2.462
286.65	2.651
287.02	2.727
287.38	2.853
287.74	2.851
288.10	2.758
288.46	2.814
288.82	3.083
289.18	3.183
289.54	3.085
289.91	3.350
290.27	3.399
290.63	3.287
290.99	3.240
291.35	3.133
291.71	3.091
292.07	2.920
292.43	3.011
292.79	2.914
293.16	2.967
293.52	2.841
293.88	2.903
294.24	3.050
294.60	3.099
294.96	3.125
295.32	2.969
295.68	2.923
296.04	3.086
296.40	2.942
296.76	2.910
297.12	2.877
297.49	3.126
297.85	3.001
298.21	2.911
298.57	2.771
298.93	2.740
299.29	2.826
299.65	2.968
300.01	2.888
300.37	3.060
300.73	3.091
301.09	3.065
301.45	2.895
301.81	2.811
302.17	2.859
302.53	2.866
302.89	2.873
303.25	2.873
303.61	2.759
303.97	2.832
304.33	2.656
304.69	2.559
305.05	2.624
305.41	2.736
305.77	2.828
306.13	2.777
306.49	2.838
306.85	2.807
307.21	2.917
307.57	2.988
307.93	3.066
308.29	3.144
308.65	3.215
309.01	3.318
309.37	3.306
309.73	3.245
310.09	3.177
310.45	3.141
310.81	3.124
311.17	3.129
311.53	3.158
311.89	2.993
312.25	3.018
312.61	3.111
312.96	2.979
313.32	3.043
313.68	3.100
314.04	3.073
314.40	3.089
314.76	3.106
315.12	3.160
315.48	3.170
315.84	3.239
316.20	3.230
316.56	3.110
316.92	3.306
317.27	3.165
317.63	3.324
317.99	3.526
318.35	3.599
318.71	3.575
319.07	3.380
319.43	3.356
319.79	3.343
320.15	3.460
320.50	3.664
320.86	3.566
321.22	3.753
321.58	3.730
321.94	3.745
322.30	3.746
322.66	3.769
323.01	3.929
323.37	3.963
323.73	3.984
324.09	3.928
324.45	3.808
324.81	3.789
325.17	3.616
325.52	3.555
325.88	3.454
326.24	3.496
326.60	3.637
326.96	3.709
327.31	3.758
327.67	3.844
328.03	3.938
328.39	3.993
328.75	3.984
329.11	4.078
329.46	4.153
329.82	4.222
330.18	4.179
330.54	4.103
330.90	3.973
331.25	3.899
331.61	3.972
331.97	3.954
332.33	3.918
332.68	3.887
333.04	3.932
333.40	3.978
333.76	4.093
334.11	4.057
334.47	4.080
334.83	4.150
335.19	4.239
335.54	4.192
335.90	4.190
336.26	4.240
336.62	4.323
336.97	4.304
337.33	4.235
337.69	4.180
338.05	4.259
338.40	4.343
338.76	4.294
339.12	4.257
339.48	4.175
339.83	4.311
340.19	4.271
340.55	4.315
340.90	4.286
341.26	4.366
341.62	4.382
341.97	4.369
342.33	4.281
342.69	4.331
343.04	4.384
343.40	4.430
343.76	4.358
344.12	4.464
344.47	4.377
344.83	4.543
345.19	4.515
345.54	4.642
345.90	4.684
346.26	4.677
346.61	4.727
346.97	4.694
347.32	4.785
347.68	4.850
348.04	4.849
348.39	4.983
348.75	4.931
349.11	4.973
349.46	4.862
349.82	4.880
350.18	4.838
350.53	4.862
350.89	4.971
351.24	4.954
351.60	4.888
351.96	4.767
352.31	4.756
352.67	4.758
353.02	4.750
353.38	4.766
353.74	4.767
354.09	4.895
354.45	4.887
354.80	4.842
355.16	4.905
355.52	4.912
355.87	4.937
356.23	4.911
356.58	4.909
356.94	4.884
357.29	4.897
357.65	4.969
358.00	4.981
358.36	4.971
358.72	4.973
359.07	4.845
359.43	4.818
359.78	4.856
360.14	4.861
360.49	4.941
360.85	4.963
361.20	4.954
361.56	4.968
361.91	5.026
362.27	4.992
362.62	5.001
362.98	5.090
363.33	5.121
363.69	5.112
364.04	5.097
364.40	4.968
364.75	5.005
365.11	5.031
365.46	4.996
365.82	5.017
366.17	5.077
366.53	5.095
366.88	5.098
367.24	5.106
367.59	5.168
367.95	5.244
368.30	5.326
368.66	5.328
369.01	5.329
369.37	5.331
369.72	5.282
370.08	5.257
370.43	5.245
370.78	5.238
371.14	5.242
371.49	5.232
371.85	5.207
372.20	5.205
372.56	5.200
372.91	5.188
373.26	5.251
373.62	5.248
373.97	5.302
374.33	5.317
374.68	5.327
375.03	5.351
375.39	5.377
375.74	5.411
376.10	5.424
376.45	5.378
376.80	5.421
377.16	5.381
377.51	5.377
377.87	5.360
378.22	5.394
378.57	5.386
378.93	5.372
379.28	5.402
379.63	5.395
379.99	5.387
380.34	5.460
380.70	5.438
381.05	5.446
381.40	5.502
381.76	5.531
382.11	5.530
382.46	5.594
382.82	5.643
383.17	5.618
383.52	5.577
383.88	5.611
384.23	5.612
384.58	5.676
384.94	5.671
385.29	5.644
385.64	5.608
385.99	5.597
386.35	5.541
386.70	5.527
387.05	5.523
387.41	5.529
387.76	5.524
388.11	5.549
388.47	5.519
388.82	5.508
389.17	5.488
389.52	5.503
389.88	5.524
390.23	5.527
390.58	5.499
390.93	5.518
391.29	5.540
391.64	5.494
391.99	5.449
392.34	5.419
392.70	5.429
393.05	5.427
393.40	5.406
393.75	5.390
394.11	5.410
394.46	5.389
394.81	5.340
395.16	5.318
395.52	5.321
395.87	5.310
396.22	5.328
396.57	5.345
396.92	5.368
397.28	5.395
397.63	5.375
397.98	5.380
398.33	5.415
398.68	5.406
399.04	5.414
399.39	5.440
399.74	5.411
400.09	5.390
400.44	5.348
400.80	5.314
401.15	5.286
401.50	5.272
401.85	5.254
402.20	5.228
402.55	5.218
402.90	5.194
403.26	5.153
403.61	5.177
403.96	5.156
404.31	5.185
404.66	5.202
405.01	5.230
405.36	5.255
405.72	5.250
406.07	5.228
406.42	5.257
406.77	5.287
407.12	5.313
407.47	5.333
407.82	5.345
408.17	5.319
408.53	5.330
408.88	5.289
409.23	5.247
409.58	5.213
409.93	5.226
410.28	5.212
410.63	5.186
410.98	5.160
411.33	5.137
411.68	5.127
412.03	5.094
412.38	5.060
412.73	5.047
413.09	5.037
413.44	5.037
413.79	5.041
414.14	4.994
414.49	4.951
414.84	4.925
415.19	4.882
415.54	4.870
415.89	4.855
416.24	4.814
416.59	4.793
416.94	4.781
417.29	4.767
417.64	4.737
417.99	4.728
418.34	4.733
418.69	4.730
419.04	4.731
419.39	4.698
419.74	4.681
420.09	4.687
420.44	4.675
420.79	4.664
421.14	4.672
421.49	4.669
421.84	4.678
422.19	4.653
422.54	4.653
422.89	4.645
423.24	4.660
423.59	4.657
423.94	4.657
424.29	4.656
424.64	4.662
424.99	4.647
425.34	4.648
425.68	4.645
426.03	4.677
426.38	4.667
426.73	4.680
427.08	4.688
427.43	4.717
427.78	4.707
428.13	4.723
428.48	4.722
428.83	4.718
429.18	4.718
429.53	4.718
429.87	4.712
430.22	4.720
430.57	4.714
430.92	4.708
431.27	4.708
431.62	4.711
431.97	4.706
432.32	4.717
432.67	4.729
433.01	4.751
433.36	4.742
433.71	4.747
434.06	4.736
434.41	4.743
434.76	4.755
435.11	4.778
435.45	4.770
435.80	4.762
436.15	4.746
436.50	4.743
436.85	4.718
437.20	4.716
437.54	4.710
437.89	4.722
438.24	4.706
438.59	4.693
438.94	4.673
439.29	4.679
439.63	4.684
439.98	4.675
440.33	4.667
440.68	4.653
441.03	4.645
441.37	4.638
441.72	4.621
442.07	4.616
442.42	4.594
442.76	4.553
443.11	4.538
443.46	4.530
443.81	4.523
444.16	4.511
444.50	4.508
444.85	4.503
445.20	4.486
445.55	4.483
445.89	4.476
446.24	4.476
446.59	4.507
446.94	4.518
447.28	4.509
447.63	4.525
447.98	4.530
448.32	4.539
448.67	4.546
449.02	4.569
449.37	4.559
449.71	4.567
450.06	4.570
450.41	4.562
450.75	4.555
451.10	4.567
451.45	4.566
451.79	4.584
452.14	4.585
452.49	4.589
452.84	4.587
453.18	4.599
453.53	4.588
453.88	4.598
454.22	4.583
454.57	4.575
454.92	4.570
455.26	4.553
455.61	4.531
455.95	4.520
456.30	4.505
456.65	4.500
456.99	4.497
457.34	4.508
457.69	4.511
458.03	4.528
458.38	4.545
458.73	4.559
459.07	4.581
459.42	4.600
459.76	4.626
460.11	4.668
460.46	4.682
460.80	4.715
461.15	4.754
461.49	4.781
461.84	4.825
462.19	4.850
462.53	4.869
462.88	4.882
463.22	4.907
463.57	4.933
463.91	4.936
464.26	4.972
464.61	4.978
464.95	4.990
465.30	5.005
465.64	5.010
465.99	5.028
466.33	5.039
466.68	5.059
467.02	5.081
467.37	5.089
467.71	5.110
468.06	5.130
468.41	5.154
468.75	5.167
469.10	5.174
469.44	5.182
469.79	5.199
470.13	5.237
470.48	5.245
470.82	5.259
471.17	5.276
471.51	5.269
471.86	5.265
472.20	5.265
472.55	5.271
472.89	5.284
473.23	5.281
473.58	5.269
473.92	5.243
474.27	5.241
474.61	5.214
474.96	5.215
475.30	5.225
475.65	5.213
475.99	5.222
476.34	5.213
476.68	5.205
477.02	5.197
477.37	5.193
477.71	5.194
478.06	5.176
478.40	5.175
478.75	5.178
479.09	5.187
479.43	5.259
479.78	5.366
480.12	5.478
480.47	5.606
480.81	5.734
481.15	5.855
481.50	5.979
481.84	6.129
482.19	6.293
482.53	6.444
482.87	6.577
483.22	6.621
483.56	6.582
483.90	6.509
484.25	6.401
484.59	6.276
484.94	6.138
485.28	5.988
485.62	5.823
485.97	5.639
486.31	5.472
486.65	5.340
487.00	5.262
487.34	5.227
487.68	5.228
488.03	5.257
488.37	5.287
488.71	5.334
489.06	5.383
489.40	5.429
489.74	5.471
490.09	5.519
490.43	5.560
490.77	5.604
491.11	5.658
491.46	5.691
491.80	5.720
492.14	5.769
492.49	5.822
492.83	5.870
493.17	5.920
493.51	5.993
493.86	6.071
494.20	6.146
494.54	6.220
494.88	6.280
495.23	6.365
495.57	6.433
495.91	6.515
496.25	6.565
496.60	6.649
496.94	6.738
497.28	6.829
497.62	6.917
497.97	7.035
498.31	7.150
498.65	7.284
498.99	7.405
499.33	7.543
499.68	7.671
500.02	7.829
500.36	7.979
500.70	8.125
501.04	8.276
501.39	8.460
501.73	8.603
502.07	8.779
502.41	8.933
502.75	9.101
503.09	9.282
503.44	9.457
503.78	9.650
504.12	9.853
504.46	10.077
504.80	10.300
505.14	10.491
505.49	10.706
505.83	10.914
506.17	11.131
506.51	11.358
506.85	11.578
507.19	11.810
507.53	12.054
507.87	12.297
508.22	12.526
508.56	12.786
508.90	13.050
509.24	13.313
509.58	13.583
509.92	13.864
510.26	14.156
510.60	14.464
510.94	14.756
511.28	15.042
511.63	15.354
511.97	15.672
512.31	15.970
512.65	16.287
512.99	16.632
513.33	16.983
513.67	17.324
514.01	17.679
514.35	18.006
514.69	18.348
515.03	18.671
515.37	18.969
515.71	19.256
516.05	19.548
516.39	19.823
516.73	20.060
517.07	20.299
517.41	20.559
517.75	20.797
518.09	21.054
518.43	21.315
518.77	21.589
519.11	21.880
519.45	22.177
519.79	22.475
520.13	22.802
520.47	23.145
520.81	23.495
521.15	23.823
521.49	24.167
521.83	24.459
522.17	24.751
522.51	25.021
522.85	25.285
523.19	25.589
523.53	25.958
523.87	26.324
524.21	26.792
524.55	27.321
524.89	27.843
525.23	28.378
525.57	28.888
525.91	29.389
526.25	29.888
526.58	30.369
526.92	30.806
527.26	31.113
527.60	31.246
527.94	31.135
528.28	30.833
528.62	30.430
528.96	30.006
529.30	29.850
529.64	29.682
529.97	29.497
530.31	29.292
530.65	29.111
530.99	29.025
531.33	29.147
531.67	29.444
532.01	29.899
532.35	30.426
532.68	30.911
533.02	31.064
533.36	31.180
533.70	31.278
534.04	31.371
534.38	31.472
534.71	31.567
535.05	31.663
535.39	31.775
535.73	31.851
536.07	31.993
536.41	32.163
536.74	32.308
537.08	32.449
537.42	32.642
537.76	32.810
538.10	32.968
538.43	33.121
538.77	33.253
539.11	33.382
539.45	33.500
539.79	33.593
540.12	33.658
540.46	33.716
540.80	33.762
541.14	33.764
541.47	33.788
541.81	33.793
542.15	33.816
542.49	33.841
542.82	33.870
543.16	33.890
543.50	33.904
543.84	33.959
544.17	34.043
544.51	34.102
544.85	34.169
545.18	34.228
545.52	34.304
545.86	34.360
546.20	34.452
546.53	34.532
546.87	34.642
547.21	34.753
547.54	34.832
547.88	34.892
548.22	34.999
548.55	35.068
548.89	35.181
549.23	35.262
549.56	35.335
549.90	35.353
550.24	35.395
550.57	35.407
550.91	35.408
551.25	35.419
551.58	35.462
551.92	35.512
552.26	35.573
552.59	35.592
552.93	35.638
553.27	35.714
553.60	35.813
553.94	35.849
554.27	35.918
554.61	36.005
554.95	36.077
555.28	36.110
555.62	36.155
555.95	36.185
556.29	36.209
556.63	36.232
556.96	36.241
557.30	36.202
557.63	36.220
557.97	36.252
558.31	36.242
558.64	36.260
558.98	36.301
559.31	36.299
559.65	36.337
559.98	36.364
560.32	36.401
560.65	36.431
560.99	36.453
561.33	36.478
561.66	36.472
562.00	36.480
562.33	36.446
562.67	36.434
563.00	36.410
563.34	36.368
563.67	36.365
564.01	36.321
564.34	36.297
564.68	36.276
565.01	36.225
565.35	36.204
565.68	36.205
566.02	36.228
566.35	36.191
566.69	36.190
567.02	36.189
567.36	36.151
567.69	36.135
568.03	36.109
568.36	36.104
568.69	36.135
569.03	36.106
569.36	36.070
569.70	36.054
570.03	36.050
570.37	36.021
570.70	36.008
571.04	35.967
571.37	35.955
571.70	35.975
572.04	35.930
572.37	35.864
572.71	35.885
573.04	35.897
573.37	35.886
573.71	35.844
574.04	35.871
574.38	35.866
574.71	35.941
575.04	35.945
575.38	35.907
575.71	35.972
576.05	36.042
576.38	36.045
576.71	36.071
577.05	36.076
577.38	36.182
577.71	36.212
578.05	36.299
578.38	36.304
578.71	36.339
579.05	36.377
579.38	36.382
579.71	36.365
580.05	36.366
580.38	36.354
580.71	36.363
581.05	36.314
581.38	36.272
581.71	36.163
582.05	36.135
582.38	36.119
582.71	36.093
583.04	36.059
583.38	36.056
583.71	36.021
584.04	35.974
584.38	35.923
584.71	35.917
585.04	35.855
585.37	35.798
585.71	35.732
586.04	35.684
586.37	35.635
586.70	35.554
587.04	35.483
587.37	35.434
587.70	35.441
588.03	35.412
588.37	35.335
588.70	35.329
589.03	35.285
589.36	35.256
589.69	35.197
590.03	35.159
590.36	35.148
590.69	35.105
591.02	35.052
591.35	34.945
591.69	34.888
592.02	34.814
592.35	34.708
592.68	34.642
593.01	34.541
593.35	34.462
593.68	34.365
594.01	34.260
594.34	34.140
594.67	34.083
595.00	34.026
595.34	33.984
595.67	33.931
596.00	33.914
596.33	33.915
596.66	33.911
596.99	33.897
597.32	33.901
597.65	33.914
597.99	33.963
598.32	33.941
598.65	33.943
598.98	33.867
599.31	33.796
599.64	33.694
599.97	33.642
600.30	33.516
600.63	33.428
600.96	33.320
601.30	33.201
601.63	33.121
601.96	33.021
602.29	32.890
602.62	32.829
602.95	32.803
603.28	32.768
603.61	32.730
603.94	32.731
604.27	32.696
604.60	32.674
604.93	32.692
605.26	32.672
605.59	32.636
605.92	32.650
606.25	32.631
606.58	32.602
606.91	32.562
607.24	32.483
607.57	32.448
607.90	32.402
608.23	32.367
608.56	32.333
608.89	32.295
609.22	32.292
609.55	32.255
609.88	32.260
610.21	32.277
610.54	32.310
610.87	32.306
611.20	32.328
611.53	32.356
611.86	32.361
612.19	32.347
612.52	32.329
612.85	32.328
613.18	32.315
613.51	32.301
613.84	32.213
614.17	32.136
614.49	32.121
614.82	32.040
615.15	32.027
615.48	31.957
615.81	31.921
616.14	31.885
616.47	31.844
616.80	31.846
617.13	31.775
617.46	31.749
617.78	31.726
618.11	31.681
618.44	31.705
618.77	31.671
619.10	31.671
619.43	31.643
619.76	31.581
620.09	31.541
620.41	31.471
620.74	31.438
621.07	31.414
621.40	31.340
621.73	31.317
622.06	31.212
622.38	31.114
622.71	31.042
623.04	30.963
623.37	30.899
623.70	30.824
624.02	30.739
624.35	30.644
624.68	30.557
625.01	30.510
625.34	30.459
625.66	30.424
625.99	30.378
626.32	30.335
626.65	30.320
626.98	30.287
627.30	30.296
627.63	30.304
627.96	30.313
628.29	30.312
628.61	30.293
628.94	30.224
629.27	30.210
629.60	30.209
629.92	30.197
630.25	30.152
630.58	30.136
630.91	30.077
631.23	30.024
631.56	29.994
631.89	29.946
632.21	29.929
632.54	29.919
632.87	29.882
633.19	29.825
633.52	29.803
633.85	29.777
634.18	29.761
634.50	29.730
634.83	29.691
635.16	29.686
635.48	29.661
635.81	29.659
636.14	29.643
636.46	29.616
636.79	29.585
637.11	29.532
637.44	29.540
637.77	29.528
638.09	29.540
638.42	29.539
638.75	29.490
639.07	29.477
639.40	29.437
639.73	29.443
640.05	29.418
640.38	29.452
640.70	29.486
641.03	29.435
641.36	29.425
641.68	29.458
642.01	29.463
642.33	29.461
642.66	29.462
642.98	29.483
643.31	29.408
643.64	29.386
643.96	29.286
644.29	29.173
644.61	29.134
644.94	29.091
645.26	28.945
645.59	28.905
645.91	28.868
646.24	28.826
646.56	28.697
646.89	28.646
647.22	28.575
647.54	28.569
647.87	28.563
648.19	28.555
648.52	28.511
648.84	28.491
649.17	28.412
649.49	28.336
